Data from Ofra_PS_Phys_4HS23_Reflection_1.txt Node
Date: Tue Jul 20 20:40:04 EDT 2021
User: USUARIO
Spectrometer: FLMT01687
Trigger mode: 0
Integration Time (sec): 1.042999E0
Scans to average: 2
Electric dark correction enabled: true
Nonlinearity correction enabled: false
Boxcar width: 2
XAxis mode: Wavelengths
Number of Pixels in Spectrum: 3648
>>>>>Begin Spectral Data<<<<<
179.494	-0
179.716	36
179.937	127.55
180.158	29.71
180.38	38.36
180.601	44.15
180.823	19.08
181.044	-20.71
181.265	8.99
181.486	-1.51
181.708	15.72
181.929	-37.74
182.15	-7.92
182.372	-45.1
182.593	-28.01
182.814	-92.78
183.035	-16.9
183.257	-30.01
183.478	-386.34
183.699	-209.97
183.92	-16.52
184.141	-105.92
184.363	-60.61
184.584	6.63
184.805	-4.03
185.026	-6.42
185.247	-2.14
185.468	-3.3
185.689	22.58
185.91	23.42
186.132	-14.48
186.353	-21.91
186.574	-8.44
186.795	-7.35
187.016	24.03
187.237	46.35
187.458	47.68
187.679	43.92
187.9	30.36
188.121	21.27
188.342	12.14
188.563	44.9
188.784	33.39
189.005	30.07
189.226	29.68
189.447	28.98
189.667	22.08
189.888	25.59
190.109	30.64
190.33	41.87
190.551	59.22
190.772	38.1
190.993	25.97
191.214	27.75
191.434	5.72
191.655	24.63
191.876	28.24
192.097	45.87
192.318	64.1
192.538	65.84
192.759	43.01
192.98	53.37
193.201	25.04
193.421	22.41
193.642	35.84
193.863	53.97
194.083	40.56
194.304	69.97
194.525	56.59
194.745	55.49
194.966	41.47
195.187	50.95
195.407	-7
195.628	-12.78
195.848	-30.36
196.069	16.15
196.29	13.99
196.51	27.38
196.731	39.03
196.951	47.23
197.172	45.23
197.392	55.99
197.613	61.82
197.833	59.84
198.054	52.18
198.274	42.04
198.495	23.72
198.715	4.71
198.936	-0.69
199.156	22.96
199.377	19.77
199.597	36.45
199.817	37.19
200.038	43.16
200.258	58.65
200.479	65.31
200.699	42.93
200.919	55.34
201.14	52.31
201.36	11.53
201.58	-30.99
201.801	71.48
202.021	17.03
202.241	19.09
202.461	39.81
202.682	43
202.902	46.78
203.122	88.78
203.342	81.48
203.563	50.82
203.783	49.45
204.003	-6.04
204.223	-3.47
204.443	3.21
204.663	13.43
204.884	7.09
205.104	27.99
205.324	29.1
205.544	31.6
205.764	42.76
205.984	31.63
206.204	17.6
206.424	33.87
206.644	31.21
206.864	19.68
207.084	41.51
207.304	47.07
207.525	54.63
207.745	60.17
207.964	45.87
208.184	55.28
208.404	48.07
208.624	28.37
208.844	27.89
209.064	34.58
209.284	1.19
209.504	10.65
209.724	14.69
209.944	-45.36
210.164	-11.01
210.384	19.37
210.604	24.18
210.823	21.64
211.043	34.64
211.263	15.06
211.483	-7.86
211.703	-33.8
211.922	-37.14
212.142	-29.63
212.362	24.41
212.582	17.93
212.801	35.8
213.021	31.78
213.241	26.94
213.461	3.37
213.68	-32.93
213.9	-29.89
214.12	-36.6
214.339	-64.62
214.559	-28.48
214.779	-12.18
214.998	-18.19
215.218	0.3
215.438	6.45
215.657	13.15
215.877	25.24
216.096	44.67
216.316	26.46
216.535	32.44
216.755	12.41
216.974	25.34
217.194	-7.85
217.413	12.65
217.633	10.28
217.852	24.26
218.072	9.27
218.291	15.07
218.511	11.99
218.73	7.93
218.95	12.69
219.169	7.03
219.389	11.1
219.608	24.93
219.827	33.92
220.047	18.8
220.266	22.78
220.485	32.6
220.705	1.66
220.924	-16.74
221.143	-2.66
221.363	-5.94
221.582	-35.19
221.801	-0.32
222.021	19.03
222.24	24.23
222.459	31.25
222.678	42.02
222.897	40.69
223.117	27.02
223.336	39.22
223.555	34.1
223.774	12.27
223.993	46.31
224.213	43.89
224.432	32.89
224.651	33.42
224.87	41.49
225.089	0.82
225.308	13.9
225.527	12.88
225.746	-1.03
225.965	14.75
226.184	15.7
226.404	27.67
226.623	11.62
226.842	28.63
227.061	16.65
227.28	16.99
227.499	-15.13
227.718	-0.93
227.936	6.68
228.155	17.27
228.374	34.49
228.593	48.18
228.812	50.2
229.031	45.35
229.25	32.56
229.469	21.06
229.688	5.47
229.907	4.06
230.125	0.36
230.344	21.45
230.563	29.28
230.782	28.2
231.001	39.01
231.22	55.73
231.438	25.99
231.657	-1.69
231.876	33.5
232.095	26.02
232.313	15.37
232.532	38.55
232.751	61.01
232.969	45.15
233.188	58.12
233.407	73.53
233.625	50.22
233.844	60.22
234.063	63.52
234.281	46.48
234.5	38.12
234.719	53.24
234.937	39.24
235.156	43.46
235.374	54.75
235.593	51.88
235.811	43.06
236.03	40.02
236.249	27.31
236.467	18.95
236.686	10.42
236.904	20.8
237.123	21.34
237.341	14.31
237.559	20.3
237.778	8.4
237.996	0.76
238.215	2.02
238.433	23.47
238.652	22.8
238.87	28.38
239.088	30.43
239.307	38.38
239.525	42.38
239.743	36.94
239.962	48.26
240.18	48.34
240.398	50.9
240.617	33.93
240.835	32.87
241.053	34.49
241.271	39.79
241.49	22.81
241.708	48.31
241.926	47.21
242.144	42.01
242.363	27.01
242.581	45.45
242.799	23.03
243.017	24.63
243.235	36.96
243.453	33.8
243.672	21.11
243.89	20.76
244.108	22.97
244.326	5.47
244.544	13.78
244.762	17.02
244.98	19.1
245.198	17.44
245.416	17.97
245.634	20.96
245.852	23.99
246.07	24.59
246.288	26.34
246.506	27.91
246.724	5.76
246.942	2.23
247.16	-13.74
247.378	-9.57
247.596	-0
247.814	15.56
248.032	14.17
248.25	14.94
248.468	9.19
248.685	1.04
248.903	-4.22
249.121	-2.36
249.339	1.32
249.557	4.97
249.775	9.15
249.992	17.22
250.21	26.03
250.428	33.47
250.646	54.05
250.863	60.71
251.081	12.24
251.299	-0.8
251.517	1.8
251.734	-20.3
251.952	-32.13
252.17	-19.33
252.387	-3.78
252.605	-1.85
252.823	32.8
253.04	43.82
253.258	48.09
253.475	42.78
253.693	59.44
253.911	54.15
254.128	40.95
254.346	41.18
254.563	61.16
254.781	30.98
254.998	29.98
255.216	22.08
255.433	29.9
255.651	69.36
255.868	83.04
256.086	93.51
256.303	72.05
256.521	53.82
256.738	21.38
256.956	19.77
257.173	7.75
257.39	11.1
257.608	18.7
257.825	29.27
258.043	43.12
258.26	41.82
258.477	46.97
258.695	50.29
258.912	53.04
259.129	40.39
259.346	35.15
259.564	15.6
259.781	28.1
259.998	16.9
260.216	9.51
260.433	8.74
260.65	30.22
260.867	27.67
261.084	21.42
261.302	28.77
261.519	48.2
261.736	23.16
261.953	8.81
262.17	-2.28
262.387	16.23
262.604	6.61
262.822	24.38
263.039	22.23
263.256	25.66
263.473	22.89
263.69	29.7
263.907	40.1
264.124	20.14
264.341	30.98
264.558	11.93
264.775	-17.01
264.992	-14.27
265.209	26.7
265.426	18.57
265.643	30.87
265.86	44.18
266.077	28.1
266.294	25.21
266.51	27.9
266.727	22.53
266.944	25.62
267.161	40.26
267.378	31.08
267.595	30.44
267.812	23.57
268.028	1.78
268.245	-10.73
268.462	0.71
268.679	-3.05
268.896	10.95
269.112	25.83
269.329	19
269.546	24.08
269.763	27.36
269.979	26.93
270.196	9.85
270.413	19.29
270.629	18.75
270.846	18.15
271.063	14.23
271.279	12.56
271.496	12.98
271.712	19.97
271.929	17.99
272.146	35.19
272.362	51.02
272.579	53.93
272.795	37.02
273.012	24.07
273.228	8.72
273.445	-5.29
273.661	-16.81
273.878	-0.71
274.094	13.73
274.311	22.56
274.527	33.93
274.744	38.83
274.96	46.42
275.177	59.78
275.393	44.56
275.609	7.37
275.826	4.04
276.042	-2.59
276.259	-27.72
276.475	-0.92
276.691	0.72
276.908	-12.38
277.124	-7.8
277.34	6.29
277.557	3.19
277.773	19.88
277.989	30.18
278.205	24.99
278.422	14.07
278.638	26.08
278.854	29.3
279.07	30.28
279.286	38.73
279.503	41.38
279.719	42.16
279.935	44.49
280.151	37.56
280.367	21.4
280.583	36.24
280.799	34.53
281.016	26.58
281.232	22.56
281.448	30.69
281.664	35.9
281.88	11.03
282.096	17.05
282.312	27.15
282.528	50.2
282.744	42.74
282.96	60.49
283.176	41.82
283.392	25.39
283.608	2.87
283.824	-3.99
284.04	-2.78
284.256	8.23
284.471	6.52
284.687	16.21
284.903	22.4
285.119	11.57
285.335	18.13
285.551	16.18
285.767	24
285.982	4.48
286.198	27.47
286.414	26.06
286.63	48.67
286.846	47.19
287.061	60.53
287.277	40.86
287.493	22.19
287.709	12.95
287.924	7.74
288.14	21.12
288.356	29.6
288.571	39.21
288.787	35.69
289.003	33.1
289.218	20.77
289.434	18.96
289.65	30.87
289.865	26.42
290.081	46.62
290.296	57.89
290.512	67.09
290.727	72.48
290.943	61.81
291.159	57.53
291.374	43.81
291.59	18.17
291.805	-6.77
292.021	1.68
292.236	2.13
292.451	14.28
292.667	28.93
292.882	34.04
293.098	39.31
293.313	33.85
293.529	37.54
293.744	38.57
293.959	44.52
294.175	53.42
294.39	55.01
294.605	44.69
294.821	34.64
295.036	33.26
295.251	7.93
295.467	10.66
295.682	12.38
295.897	18.67
296.112	20.93
296.328	14.08
296.543	17.59
296.758	17.34
296.973	10.22
297.188	4.23
297.404	15.06
297.619	19.88
297.834	18.43
298.049	18.59
298.264	11.9
298.479	2.39
298.694	-6.41
298.909	6.77
299.125	18.12
299.34	38.46
299.555	38.47
299.77	45.46
299.985	39.95
300.2	27.62
300.415	23.88
300.63	39.4
300.845	17.03
301.06	22.04
301.275	26.95
301.49	27.9
301.704	10.36
301.919	23.11
302.134	10.62
302.349	13.53
302.564	5.43
302.779	14.57
302.994	23.03
303.209	3.5
303.423	5.14
303.638	16.69
303.853	4.2
304.068	9.29
304.283	39.91
304.497	38.83
304.712	38.2
304.927	39.49
305.142	32.77
305.356	24.76
305.571	34.04
305.786	30.61
306	43.25
306.215	31.79
306.43	38.84
306.644	35.12
306.859	39.58
307.074	30.58
307.288	38.22
307.503	42.39
307.717	24.8
307.932	36.76
308.147	33.97
308.361	38.57
308.576	27.51
308.79	34.35
309.005	5.98
309.219	6.98
309.434	5.23
309.648	14.74
309.863	22.6
310.077	35.68
310.292	29.72
310.506	26.63
310.72	26.59
310.935	26.56
311.149	6.96
311.364	26.61
311.578	49.38
311.792	48.78
312.007	42.49
312.221	51.28
312.435	40.38
312.649	12.27
312.864	-0.12
313.078	0.11
313.292	8.17
313.507	11.84
313.721	13.21
313.935	18.7
314.149	25.98
314.363	12.22
314.578	3.36
314.792	11.37
315.006	17.6
315.22	2.18
315.434	2.23
315.648	20.2
315.862	19.41
316.077	23.27
316.291	28.97
316.505	48.45
316.719	46.64
316.933	34.98
317.147	29.35
317.361	28.51
317.575	7.92
317.789	-18.09
318.003	-25.84
318.217	-9.77
318.431	11.11
318.645	20.93
318.859	29.87
319.073	29.83
319.287	23.61
319.5	10.24
319.714	22.65
319.928	34.35
320.142	37.54
320.356	41.57
320.57	51.69
320.784	39.62
320.997	30.73
321.211	26.55
321.425	24.9
321.639	28.56
321.853	40.01
322.066	50.85
322.28	58.18
322.494	61.74
322.707	47.92
322.921	38.46
323.135	21.7
323.349	14.71
323.562	4.45
323.776	5.41
323.989	25.39
324.203	27.59
324.417	30.72
324.63	31.26
324.844	37.24
325.057	34.58
325.271	32.38
325.485	26.03
325.698	37.38
325.912	28.62
326.125	22.63
326.339	24.11
326.552	39.1
326.766	30.14
326.979	33.32
327.193	27.52
327.406	43.21
327.619	35.44
327.833	27.5
328.046	20.24
328.26	6.33
328.473	6.26
328.686	-4.11
328.9	-10.69
329.113	10.17
329.326	32.25
329.54	24.67
329.753	33.22
329.966	25.96
330.179	16.8
330.393	17.19
330.606	26.6
330.819	4.59
331.032	35.08
331.246	46.83
331.459	62.86
331.672	66.7
331.885	80.12
332.098	59.74
332.311	58.93
332.525	50.44
332.738	34.05
332.951	37.8
333.164	41.98
333.377	47.05
333.59	28.6
333.803	33.9
334.016	19.96
334.229	9.65
334.442	7.92
334.655	1.07
334.868	-2.57
335.081	14.74
335.294	30.16
335.507	28.94
335.72	39.78
335.933	38.18
336.146	49.25
336.359	32.06
336.572	22.21
336.785	20.83
336.997	20.06
337.21	-9.89
337.423	11.46
337.636	14.53
337.849	10.81
338.062	18.71
338.274	44.85
338.487	42.7
338.7	44.31
338.913	49.78
339.125	50.52
339.338	31.09
339.551	10.45
339.763	8.19
339.976	5.88
340.189	-9.36
340.402	3.61
340.614	9.88
340.827	21.87
341.039	20.32
341.252	33.68
341.465	21.27
341.677	8.37
341.89	-27.21
342.102	-20.74
342.315	-10.57
342.527	15.08
342.74	29.54
342.952	46.42
343.165	48.29
343.377	50.77
343.59	36.49
343.802	36.76
344.015	37.94
344.227	34.34
344.44	19.42
344.652	17.02
344.864	18.77
345.077	-4.82
345.289	1.41
345.502	3.67
345.714	4.46
345.926	-26.62
346.139	3
346.351	2.51
346.563	9.24
346.775	5.49
346.988	15.68
347.2	7.71
347.412	13.2
347.624	12.14
347.837	22.39
348.049	7.25
348.261	12.76
348.473	-17.55
348.685	-2.05
348.897	7.55
349.11	20.69
349.322	18.19
349.534	25.51
349.746	19.08
349.958	18.65
350.17	13.64
350.382	12.64
350.594	14.23
350.806	23.4
351.018	26.44
351.23	30.36
351.442	34.69
351.654	34.65
351.866	33.8
352.078	21.44
352.29	25.93
352.502	15.12
352.714	15.78
352.926	25.24
353.138	25.32
353.35	11.67
353.561	18.37
353.773	23.52
353.985	-0.16
354.197	4.54
354.409	29.89
354.621	35.98
354.832	26.83
355.044	37.47
355.256	43.13
355.468	27.72
355.679	18.86
355.891	17.82
356.103	22.17
356.314	15.94
356.526	21.35
356.738	18.69
356.949	24.68
357.161	27.02
357.373	28.54
357.584	28.09
357.796	33.66
358.008	32.65
358.219	28.53
358.431	25.7
358.642	27.06
358.854	21.4
359.065	11.37
359.277	4.84
359.488	9.13
359.7	-5.76
359.911	16.45
360.123	24.58
360.334	24.33
360.546	40.95
360.757	52.73
360.969	47.21
361.18	43.22
361.391	48.92
361.603	36.79
361.814	21.84
362.025	19.21
362.237	22.8
362.448	10.76
362.659	8.82
362.871	21.66
363.082	20.42
363.293	14.55
363.504	11.91
363.716	7.05
363.927	9.4
364.138	14.35
364.349	17.2
364.56	16.98
364.772	16.92
364.983	22.31
365.194	19.34
365.405	6.88
365.616	17.79
365.827	23.66
366.038	12.95
366.25	10.66
366.461	22.18
366.672	21.24
366.883	2.93
367.094	14.98
367.305	12.88
367.516	-1.95
367.727	-9.17
367.938	6.82
368.149	-6.13
368.36	-5.65
368.571	13.8
368.781	17.58
368.992	15.78
369.203	31.16
369.414	26.56
369.625	19.52
369.836	29.11
370.047	28.98
370.258	14.32
370.468	18.31
370.679	7.48
370.89	-5.04
371.101	3.04
371.312	5.86
371.522	-3.76
371.733	11.15
371.944	18.07
372.155	20.86
372.365	25.5
372.576	47.65
372.787	44.7
372.997	43.21
373.208	43.38
373.419	48.08
373.629	21.34
373.84	17.77
374.05	25.92
374.261	29.13
374.472	17.01
374.682	31.25
374.893	31.19
375.103	15.96
375.314	21.09
375.524	34.88
375.735	29.02
375.945	26.93
376.156	34.81
376.366	27.16
376.577	-0.7
376.787	-4.2
376.997	3.41
377.208	6.79
377.418	-1.98
377.629	-4.23
377.839	9.29
378.049	19.14
378.26	13.98
378.47	13.11
378.68	23.99
378.89	14.34
379.101	9.37
379.311	21.4
379.521	34.94
379.732	26.31
379.942	26.38
380.152	14.41
380.362	13.36
380.572	8.51
380.783	8.26
380.993	9.51
381.203	14.77
381.413	1.48
381.623	9.84
381.833	22.21
382.043	21.09
382.253	22.01
382.463	29.49
382.674	25.27
382.884	20.58
383.094	20.66
383.304	15.62
383.514	21.63
383.724	22.39
383.934	19.06
384.144	20.71
384.353	22.01
384.563	7.03
384.773	3.56
384.983	9.48
385.193	9.78
385.403	8.86
385.613	17.71
385.823	14.41
386.033	9.16
386.242	3.74
386.452	0.69
386.662	-0.82
386.872	1.91
387.082	-1.44
387.291	5.28
387.501	11.61
387.711	12.66
387.921	16.62
388.13	18.4
388.34	10.64
388.55	5.27
388.759	1.96
388.969	-4.38
389.179	0.93
389.388	4.67
389.598	9.04
389.807	10.83
390.017	13.91
390.227	5.87
390.436	8.41
390.646	7.47
390.855	11.34
391.065	8.9
391.274	9.96
391.484	9.38
391.693	9.46
391.903	4.65
392.112	5.35
392.322	7.6
392.531	6.04
392.74	6.03
392.95	6.98
393.159	5.6
393.369	5.93
393.578	4.86
393.787	5.15
393.997	6.43
394.206	6.56
394.415	5.82
394.625	8.17
394.834	7.56
395.043	6.03
395.252	6.75
395.462	5.67
395.671	3.49
395.88	3.16
396.089	3.07
396.298	3.28
396.508	2.87
396.717	3.4
396.926	3.72
397.135	3.76
397.344	3.3
397.553	3.68
397.762	4.17
397.971	3.94
398.181	4.34
398.39	4.13
398.599	4.77
398.808	3.99
399.017	4.76
399.226	5.79
399.435	6.16
399.644	6.47
399.853	6.81
400.062	6.07
400.27	5.35
400.479	5.63
400.688	5.12
400.897	5.04
401.106	5.18
401.315	4.9
401.524	4.49
401.733	4.48
401.941	4.01
402.15	3.77
402.359	3.71
402.568	3.55
402.777	3.44
402.985	3.59
403.194	3.81
403.403	3.94
403.612	4.12
403.82	4.04
404.029	4.22
404.238	3.99
404.446	3.89
404.655	3.83
404.864	4.13
405.072	4.01
405.281	4.35
405.489	4.39
405.698	4.31
405.906	4.09
406.115	4.23
406.324	3.98
406.532	3.88
406.741	3.94
406.949	4.03
407.158	4.03
407.366	3.87
407.574	3.67
407.783	3.57
407.991	3.46
408.2	3.51
408.408	3.67
408.617	3.78
408.825	3.93
409.033	4.09
409.242	3.97
409.45	3.84
409.658	3.86
409.867	3.73
410.075	3.63
410.283	3.5
410.491	3.54
410.7	3.67
410.908	3.55
411.116	3.62
411.324	3.79
411.533	3.73
411.741	3.5
411.949	3.71
412.157	3.56
412.365	3.61
412.573	3.69
412.781	3.81
412.99	3.65
413.198	3.79
413.406	3.61
413.614	3.68
413.822	3.6
414.03	3.59
414.238	3.54
414.446	3.59
414.654	3.61
414.862	3.6
415.07	3.69
415.278	3.64
415.486	3.75
415.694	3.6
415.902	3.54
416.109	3.43
416.317	3.48
416.525	3.38
416.733	3.35
416.941	3.49
417.149	3.52
417.357	3.52
417.564	3.45
417.772	3.6
417.98	3.56
418.188	3.64
418.395	3.61
418.603	3.68
418.811	3.52
419.019	3.42
419.226	3.44
419.434	3.38
419.642	3.19
419.849	3.22
420.057	3.18
420.265	3.14
420.472	3.16
420.68	3.19
420.887	3.22
421.095	3.3
421.302	3.09
421.51	2.9
421.717	2.9
421.925	3.1
422.132	3.1
422.34	3.25
422.547	3.36
422.755	3.52
422.962	3.25
423.17	3.18
423.377	3.17
423.585	3.1
423.792	2.9
423.999	2.91
424.207	2.97
424.414	3.03
424.621	3.09
424.829	3.11
425.036	3.26
425.243	3.25
425.451	3.16
425.658	3.08
425.865	3.22
426.072	3.06
426.28	3.09
426.487	3.15
426.694	3.28
426.901	3.14
427.108	3.19
427.315	3.1
427.523	3.03
427.73	2.94
427.937	2.97
428.144	2.9
428.351	2.83
428.558	2.93
428.765	2.87
428.972	2.93
429.179	2.93
429.386	3.13
429.593	3.02
429.8	3.13
430.007	3.17
430.214	3.2
430.421	3.09
430.628	3.04
430.835	2.94
431.042	2.71
431.249	2.8
431.456	2.78
431.662	2.88
431.869	2.96
432.076	3.19
432.283	3.03
432.49	2.95
432.697	2.8
432.903	2.72
433.11	2.49
433.317	2.58
433.524	2.68
433.73	2.67
433.937	2.61
434.144	2.75
434.35	2.69
434.557	2.65
434.764	2.63
434.97	2.63
435.177	2.64
435.384	2.67
435.59	2.75
435.797	2.89
436.003	3.05
436.21	3.14
436.416	3
436.623	2.95
436.829	2.89
437.036	2.81
437.242	2.71
437.449	2.85
437.655	2.8
437.862	2.75
438.068	2.79
438.275	2.73
438.481	2.76
438.687	2.76
438.894	2.79
439.1	2.72
439.307	2.89
439.513	2.93
439.719	2.94
439.926	2.95
440.132	2.91
440.338	2.75
440.544	2.57
440.751	2.48
440.957	2.41
441.163	2.41
441.369	2.49
441.575	2.67
441.782	2.69
441.988	2.75
442.194	2.76
442.4	2.65
442.606	2.59
442.812	2.59
443.018	2.56
443.224	2.56
443.431	2.58
443.637	2.47
443.843	2.56
444.049	2.51
444.255	2.57
444.461	2.6
444.667	2.67
444.873	2.65
445.079	2.69
445.284	2.56
445.49	2.52
445.696	2.45
445.902	2.43
446.108	2.5
446.314	2.57
446.52	2.68
446.726	2.74
446.931	2.82
447.137	2.81
447.343	2.82
447.549	2.82
447.755	2.76
447.96	2.75
448.166	2.68
448.372	2.71
448.578	2.69
448.783	2.72
448.989	2.68
449.195	2.69
449.4	2.73
449.606	2.65
449.812	2.69
450.017	2.63
450.223	2.62
450.428	2.57
450.634	2.54
450.84	2.55
451.045	2.63
451.251	2.65
451.456	2.62
451.662	2.71
451.867	2.78
452.073	2.81
452.278	2.74
452.483	2.69
452.689	2.55
452.894	2.59
453.1	2.52
453.305	2.56
453.51	2.61
453.716	2.75
453.921	2.63
454.127	2.69
454.332	2.7
454.537	2.73
454.742	2.7
454.948	2.7
455.153	2.67
455.358	2.6
455.563	2.61
455.769	2.49
455.974	2.5
456.179	2.42
456.384	2.47
456.589	2.41
456.795	2.52
457	2.55
457.205	2.67
457.41	2.67
457.615	2.73
457.82	2.69
458.025	2.62
458.23	2.59
458.435	2.54
458.64	2.47
458.845	2.51
459.05	2.46
459.255	2.42
459.46	2.58
459.665	2.67
459.87	2.67
460.075	2.69
460.28	2.77
460.485	2.64
460.69	2.57
460.895	2.55
461.099	2.58
461.304	2.5
461.509	2.49
461.714	2.48
461.919	2.56
462.123	2.58
462.328	2.62
462.533	2.73
462.738	2.77
462.942	2.69
463.147	2.68
463.352	2.76
463.556	2.66
463.761	2.69
463.966	2.72
464.17	2.64
464.375	2.69
464.58	2.77
464.784	2.69
464.989	2.65
465.193	2.72
465.398	2.58
465.602	2.59
465.807	2.65
466.011	2.69
466.216	2.65
466.42	2.67
466.625	2.72
466.829	2.7
467.034	2.73
467.238	2.83
467.443	2.8
467.647	2.71
467.851	2.65
468.056	2.62
468.26	2.65
468.464	2.64
468.669	2.6
468.873	2.66
469.077	2.63
469.282	2.52
