Data from Ofra_PS_Phys_2GT38_Reflection_2.txt Node
Date: Tue Jul 20 17:50:20 EDT 2021
User: USUARIO
Spectrometer: FLMT01687
Trigger mode: 0
Integration Time (sec): 1.042999E0
Scans to average: 2
Electric dark correction enabled: true
Nonlinearity correction enabled: false
Boxcar width: 2
XAxis mode: Wavelengths
Number of Pixels in Spectrum: 3648
>>>>>Begin Spectral Data<<<<<
179.494	64.31
179.716	54.2
179.937	-0.06
180.158	-329.62
180.38	-422.7
180.601	451.7
180.823	332.5
181.044	0.26
181.265	-299.42
181.486	-24.91
181.708	-39.63
181.929	-83.92
182.15	-10.65
182.372	202.46
182.593	19.99
182.814	23.19
183.035	25.8
183.257	31.75
183.478	29.73
183.699	21.17
183.92	21.08
184.141	6.91
184.363	-3.74
184.584	21.62
184.805	40.01
185.026	44.5
185.247	48.92
185.468	46.73
185.689	37.87
185.91	44.59
186.132	28.62
186.353	35.06
186.574	57.91
186.795	85.11
187.016	79.19
187.237	107.26
187.458	124.13
187.679	111.68
187.9	1.03
188.121	-62.64
188.342	-351.42
188.563	-118.83
188.784	-73.17
189.005	8.69
189.226	38.47
189.447	50.73
189.667	42.03
189.888	117.02
190.109	74.38
190.33	71.48
190.551	79.25
190.772	79.07
190.993	42.29
191.214	61.64
191.434	45.2
191.655	28.83
191.876	18.43
192.097	25.94
192.318	43.57
192.538	46.38
192.759	80.19
192.98	76.72
193.201	79.46
193.421	44.15
193.642	53.38
193.863	38.07
194.083	71.43
194.304	54.77
194.525	39.43
194.745	30.96
194.966	37.06
195.187	-8.56
195.407	-40.23
195.628	15.62
195.848	27.22
196.069	47.79
196.29	57.43
196.51	62.57
196.731	57.6
196.951	33.99
197.172	1.68
197.392	-0.03
197.613	10.47
197.833	25.58
198.054	32.15
198.274	42.94
198.495	41.07
198.715	46.8
198.936	31.07
199.156	22.89
199.377	10.7
199.597	6.91
199.817	-4.4
200.038	10.42
200.258	18.94
200.479	45.91
200.699	37.74
200.919	19.37
201.14	31.19
201.36	29.13
201.58	-41.06
201.801	32.4
202.021	83.97
202.241	5.88
202.461	18.93
202.682	33.15
202.902	-53.11
203.122	-33.05
203.342	4.07
203.563	10.77
203.783	18.51
204.003	37.82
204.223	44.68
204.443	51.51
204.663	8.23
204.884	69.81
205.104	40.84
205.324	23.41
205.544	12.97
205.764	40.54
205.984	2.8
206.204	7.06
206.424	40.94
206.644	28.91
206.864	10.23
207.084	24.77
207.304	26.45
207.525	-13.93
207.745	-18.94
207.964	-33.53
208.184	-6.76
208.404	10.93
208.624	15.24
208.844	29.74
209.064	28.67
209.284	22.26
209.504	13
209.724	27.82
209.944	20.1
210.164	2.99
210.384	2.31
210.604	28.49
210.823	10.67
211.043	-16.3
211.263	4.1
211.483	-8.4
211.703	-10.63
211.922	-14.28
212.142	13.52
212.362	9.68
212.582	-5.51
212.801	-11.87
213.021	7.94
213.241	-81.13
213.461	-37.54
213.68	-8.1
213.9	-57.34
214.12	-72.17
214.339	-71.53
214.559	-44.56
214.779	-3.11
214.998	46.21
215.218	56.69
215.438	69.02
215.657	52.54
215.877	41.98
216.096	37.37
216.316	35.71
216.535	33.92
216.755	35.97
216.974	27.95
217.194	10.49
217.413	5.29
217.633	-7.6
217.852	-0.67
218.072	10.49
218.291	22.22
218.511	33.47
218.73	43.73
218.95	45.33
219.169	48.24
219.389	52.57
219.608	40.52
219.827	39.46
220.047	26.24
220.266	38.7
220.485	23.29
220.705	25.05
220.924	24.49
221.143	27.17
221.363	10.67
221.582	25
221.801	27.59
222.021	7.73
222.24	0.34
222.459	14.93
222.678	-13.33
222.897	39.49
223.117	53.04
223.336	82.02
223.555	61.12
223.774	70.14
223.993	45.12
224.213	29.79
224.432	16.7
224.651	17.75
224.87	30.35
225.089	7.06
225.308	10.26
225.527	2.35
225.746	5.45
225.965	-3.03
226.184	22.79
226.404	37.39
226.623	14.31
226.842	9.54
227.061	22.38
227.28	40.94
227.499	11.77
227.718	36.85
227.936	41.98
228.155	22.45
228.374	-5.29
228.593	4.2
228.812	8.26
229.031	21.73
229.25	28.64
229.469	46.34
229.688	41.69
229.907	45.55
230.125	44.82
230.344	59.05
230.563	37.69
230.782	32.57
231.001	30.02
231.22	13.28
231.438	1.66
231.657	14.09
231.876	30.38
232.095	25.56
232.313	35.42
232.532	39.75
232.751	33.27
232.969	22.99
233.188	31.25
233.407	12.89
233.625	29.56
233.844	39.53
234.063	32.91
234.281	31.47
234.5	40.88
234.719	32.55
234.937	33.88
235.156	42.49
235.374	22.59
235.593	8.15
235.811	-29.99
236.03	-61.45
236.249	-82.18
236.467	-37.1
236.686	5.33
236.904	6.28
237.123	26.06
237.341	35.42
237.559	43.2
237.778	33.7
237.996	31.24
238.215	22.17
238.433	6.19
238.652	5.8
238.87	3.26
239.088	15.59
239.307	11.41
239.525	28.2
239.743	32.89
239.962	18.02
240.18	6.45
240.398	6.99
240.617	1.36
240.835	7.42
241.053	44.21
241.271	48.14
241.49	51.94
241.708	52.54
241.926	44.5
242.144	41.71
242.363	37.11
242.581	42.42
242.799	43.88
243.017	41.32
243.235	22.18
243.453	31.66
243.672	44.02
243.89	27.26
244.108	22.22
244.326	26.67
244.544	20.95
244.762	-2.38
244.98	18.65
245.198	24.71
245.416	28.21
245.634	31.03
245.852	42.3
246.07	42.92
246.288	34
246.506	46.7
246.724	45.11
246.942	27.67
247.16	20.49
247.378	24.34
247.596	25.36
247.814	6.48
248.032	3.53
248.25	20.77
248.468	24.77
248.685	19.95
248.903	30
249.121	37.2
249.339	27.27
249.557	35.34
249.775	52.82
249.992	67.24
250.21	56.12
250.428	27.67
250.646	7.38
250.863	-11.49
251.081	-25.79
251.299	-49.91
251.517	-16.94
251.734	-55.34
251.952	-73.99
252.17	-14.15
252.387	7.13
252.605	-4.27
252.823	26.32
253.04	34.26
253.258	30.89
253.475	38.09
253.693	60.47
253.911	59.77
254.128	60.37
254.346	39.63
254.563	46.99
254.781	17.33
254.998	1.05
255.216	0.32
255.433	-8.18
255.651	-12.3
255.868	-12.44
256.086	15.04
256.303	20.94
256.521	26.88
256.738	20.47
256.956	36.12
257.173	33.34
257.39	2.01
257.608	-6.42
257.825	31.04
258.043	35.51
258.26	41.71
258.477	62.37
258.695	68.13
258.912	58.68
259.129	68.61
259.346	47.6
259.564	34.25
259.781	33.34
259.998	17.77
260.216	-3.05
260.433	-2.98
260.65	15.06
260.867	3.13
261.084	20.22
261.302	25.49
261.519	29.52
261.736	14.39
261.953	32.9
262.17	32.72
262.387	29.54
262.604	50.82
262.822	19.26
263.039	-2.73
263.256	-21.07
263.473	-52.93
263.69	-42.9
263.907	-4.25
264.124	-29.28
264.341	2.49
264.558	23.16
264.775	31.49
264.992	12.68
265.209	25.45
265.426	-13.68
265.643	-8.11
265.86	-12.55
266.077	-9.22
266.294	12.74
266.51	43.34
266.727	50.02
266.944	61.38
267.161	60.81
267.378	57.46
267.595	43.43
267.812	49.68
268.028	42.09
268.245	37.93
268.462	28.43
268.679	13.95
268.896	5.31
269.112	16.52
269.329	13.94
269.546	-12.83
269.763	-3.57
269.979	8.25
270.196	8.66
270.413	21.18
270.629	15.85
270.846	24.55
271.063	8.05
271.279	11.53
271.496	6.73
271.712	39.17
271.929	39.41
272.146	53.75
272.362	59.29
272.579	51.24
272.795	8.32
273.012	-1.57
273.228	-10.71
273.445	-17.28
273.661	-15.04
273.878	-6.69
274.094	4.99
274.311	22.27
274.527	27.89
274.744	7.04
274.96	25.31
275.177	11.5
275.393	-0.88
275.609	10.29
275.826	45.51
276.042	39.82
276.259	42.33
276.475	40.12
276.691	55.98
276.908	58.19
277.124	52.52
277.34	50.1
277.557	63.8
277.773	41.16
277.989	32.11
278.205	28.18
278.422	36.06
278.638	29.37
278.854	37.42
279.07	26.04
279.286	29.74
279.503	41.99
279.719	33.75
279.935	21.41
280.151	33.34
280.367	19.74
280.583	-20.66
280.799	-18.03
281.016	6.82
281.232	6.63
281.448	1.87
281.664	24.92
281.88	32.03
282.096	23.46
282.312	33.34
282.528	33.75
282.744	15
282.96	14.37
283.176	19.47
283.392	10.57
283.608	6.91
283.824	8.16
284.04	13.03
284.256	19.57
284.471	35.85
284.687	47.93
284.903	60.49
285.119	52.36
285.335	30.52
285.551	22.37
285.767	22.08
285.982	26.62
286.198	32.01
286.414	50.84
286.63	43.01
286.846	41.31
287.061	29.39
287.277	35.28
287.493	12.99
287.709	11.78
287.924	13.53
288.14	28.72
288.356	14.9
288.571	27.1
288.787	23.97
289.003	10.13
289.218	19.02
289.434	29.33
289.65	18.68
289.865	13.92
290.081	42.98
290.296	44.08
290.512	27.35
290.727	34.78
290.943	29.53
291.159	15
291.374	-37.53
291.59	-16.45
291.805	-18.73
292.021	-16.8
292.236	6.01
292.451	14.02
292.667	12.58
292.882	19.67
293.098	35.6
293.313	16.01
293.529	37.83
293.744	5.74
293.959	-1.99
294.175	-14.45
294.39	-0.3
294.605	-15.81
294.821	-23.9
295.036	-42.68
295.251	-32.44
295.467	-52.32
295.682	-43.13
295.897	-14.36
296.112	-25.3
296.328	-27.12
296.543	-1.24
296.758	11.25
296.973	6.67
297.188	22.62
297.404	24.67
297.619	11.77
297.834	-37.86
298.049	-55.63
298.264	-15.97
298.479	-33.6
298.694	-17.24
298.909	-27.16
299.125	4.7
299.34	-11.83
299.555	8.3
299.77	1.15
299.985	38.07
300.2	17.38
300.415	-10.85
300.63	-21.03
300.845	5.3
301.06	12.97
301.275	14.01
301.49	12.25
301.704	30.6
301.919	10.5
302.134	-18.15
302.349	-14.87
302.564	7
302.779	0.17
302.994	16.83
303.209	20.71
303.423	17.47
303.638	11.7
303.853	19.09
304.068	21.3
304.283	37.96
304.497	55.33
304.712	65.11
304.927	45.71
305.142	30.47
305.356	20.2
305.571	15.4
305.786	8.73
306	21.36
306.215	38.45
306.43	41.07
306.644	37.05
306.859	43.73
307.074	31.01
307.288	25.39
307.503	32.5
307.717	27.53
307.932	16.06
308.147	27.65
308.361	26.41
308.576	12.23
308.79	12.69
309.005	13.79
309.219	14.42
309.434	20.25
309.648	15.7
309.863	13.92
310.077	35.02
310.292	27.48
310.506	3.53
310.72	21.79
310.935	13.29
311.149	11.43
311.364	13.62
311.578	23.93
311.792	29.67
312.007	45.95
312.221	34.36
312.435	35.24
312.649	30.29
312.864	29.59
313.078	15.47
313.292	5.55
313.507	-4.92
313.721	5.4
313.935	10.67
314.149	22.35
314.363	38.53
314.578	46.75
314.792	31.29
315.006	14.94
315.22	-0.54
315.434	-14.23
315.648	-31.85
315.862	-31.61
316.077	-52.87
316.291	-36.9
316.505	-14.17
316.719	-0.4
316.933	2.67
317.147	2.15
317.361	-7.26
317.575	3.32
317.789	16.43
318.003	19.72
318.217	17.61
318.431	26.65
318.645	12.65
318.859	13.39
319.073	31.36
319.287	43.08
319.5	49.66
319.714	54.89
319.928	59.74
320.142	51.66
320.356	43.92
320.57	35.53
320.784	25.63
320.997	10.91
321.211	-1.95
321.425	1.24
321.639	4.11
321.853	17.05
322.066	21.28
322.28	19.02
322.494	17.13
322.707	4.59
322.921	2.52
323.135	-6.43
323.349	-4.16
323.562	-20.89
323.776	-0.17
323.989	11.65
324.203	7.51
324.417	6.93
324.63	23.54
324.844	12.03
325.057	22.34
325.271	29.14
325.485	22.88
325.698	-1.21
325.912	17.89
326.125	-1.38
326.339	-5.71
326.552	-1.75
326.766	16.41
326.979	4.82
327.193	19.4
327.406	32.36
327.619	33.91
327.833	39.65
328.046	33.21
328.26	17.14
328.473	12.76
328.686	6.89
328.9	9.92
329.113	32.48
329.326	28.99
329.54	36.93
329.753	38.38
329.966	45.97
330.179	39.2
330.393	62.47
330.606	56.65
330.819	56.45
331.032	46.9
331.246	47.69
331.459	31.68
331.672	44.54
331.885	24.61
332.098	33.52
332.311	31.06
332.525	21.99
332.738	-8.9
332.951	18.28
333.164	18.39
333.377	8.3
333.59	19.04
333.803	38.85
334.016	46.49
334.229	29.9
334.442	42
334.655	36.39
334.868	43.37
335.081	41.37
335.294	46.44
335.507	46.39
335.72	49.71
335.933	29.64
336.146	11.35
336.359	25.05
336.572	3.38
336.785	10.87
336.997	17.96
337.21	45.02
337.423	29.42
337.636	20.16
337.849	20.73
338.062	5.26
338.274	10.5
338.487	7.86
338.7	19.59
338.913	22.46
339.125	28.3
339.338	9.99
339.551	13.6
339.763	8.6
339.976	11.57
340.189	13.84
340.402	5.48
340.614	2.27
340.827	18.25
341.039	10.42
341.252	8.8
341.465	9.25
341.677	32.16
341.89	0.84
342.102	20.94
342.315	5.44
342.527	8.5
342.74	11.29
342.952	22.71
343.165	23.34
343.377	32.92
343.59	32.73
343.802	35.14
344.015	44.47
344.227	34.82
344.44	38.63
344.652	43.89
344.864	26.2
345.077	21.22
345.289	23.3
345.502	20.55
345.714	-0.02
345.926	10.11
346.139	1.7
346.351	18.07
346.563	26.52
346.775	75.5
346.988	65.17
347.2	72.57
347.412	25.58
347.624	7.67
347.837	7.17
348.049	11
348.261	14.79
348.473	17.04
348.685	21.46
348.897	31.61
349.11	37.77
349.322	29.15
349.534	30.83
349.746	42.98
349.958	30.64
350.17	21.39
350.382	25.59
350.594	28.3
350.806	19.38
351.018	34.68
351.23	28.63
351.442	23.95
351.654	22.95
351.866	12.17
352.078	-10.67
352.29	-12.55
352.502	-13.48
352.714	-19.96
352.926	-27.91
353.138	-8.59
353.35	5.6
353.561	8.9
353.773	11.1
353.985	26.42
354.197	14.28
354.409	21.94
354.621	33.01
354.832	22.29
355.044	15.8
355.256	21.47
355.468	14.7
355.679	13.9
355.891	27.22
356.103	30.83
356.314	38.48
356.526	41.3
356.738	27.02
356.949	30.66
357.161	48.55
357.373	53.39
357.584	44.52
357.796	40.07
358.008	38.58
358.219	21
358.431	15.63
358.642	22.34
358.854	21.59
359.065	16.33
359.277	6.94
359.488	10.25
359.7	4.07
359.911	0.99
360.123	14.79
360.334	19.78
360.546	12.95
360.757	15.49
360.969	27.96
361.18	21.68
361.391	27.7
361.603	30.27
361.814	20.24
362.025	14.58
362.237	22.09
362.448	13.42
362.659	13.11
362.871	19.03
363.082	16.34
363.293	10.84
363.504	15.41
363.716	11.84
363.927	-3.71
364.138	-6.81
364.349	-16.83
364.56	-9.48
364.772	-12.22
364.983	14.75
365.194	29.09
365.405	11.73
365.616	-8.74
365.827	-6.22
366.038	-5.95
366.25	-13.44
366.461	18.16
366.672	41.8
366.883	45.32
367.094	32.31
367.305	27.76
367.516	19.5
367.727	17.43
367.938	21.08
368.149	29.44
368.36	31.51
368.571	31.45
368.781	30.4
368.992	25.6
369.203	27.41
369.414	18.15
369.625	21.81
369.836	14.16
370.047	17.53
370.258	9.8
370.468	22.11
370.679	22.56
370.89	23.2
371.101	21.97
371.312	30.08
371.522	23.3
371.733	18.42
371.944	25.44
372.155	25.8
372.365	15.57
372.576	23.39
372.787	17.88
372.997	6.1
373.208	5.88
373.419	12.32
373.629	-1.87
373.84	6.53
374.05	-0.43
374.261	9.17
374.472	22.12
374.682	34.79
374.893	37.36
375.103	57.46
375.314	55.51
375.524	35.1
375.735	28.78
375.945	21.49
376.156	9.45
376.366	0.44
376.577	17.82
376.787	22.8
376.997	31.4
377.208	36.86
377.418	40.17
377.629	38.68
377.839	29.87
378.049	17.92
378.26	23.47
378.47	29.33
378.68	21.81
378.89	27.88
379.101	42.83
379.311	39.89
379.521	20.56
379.732	28.5
379.942	22.09
380.152	8.57
380.362	13.02
380.572	21.94
380.783	13.45
380.993	25.23
381.203	19.42
381.413	9.15
381.623	13.01
381.833	9.05
382.043	-16.51
382.253	-25.41
382.463	-9.69
382.674	-23.11
382.884	-16.1
383.094	0.1
383.304	7.89
383.514	-3.59
383.724	5.11
383.934	5.18
384.144	-2.99
384.353	-0.93
384.563	1.33
384.773	-4.08
384.983	-3.86
385.193	6.09
385.403	5.28
385.613	8.16
385.823	6.62
386.033	1.94
386.242	-1.13
386.452	-0.74
386.662	-1.51
386.872	7.16
387.082	5.39
387.291	2.62
387.501	1.56
387.711	3.56
387.921	1.98
388.13	6.32
388.34	10.1
388.55	9.98
388.759	8.51
388.969	9.09
389.179	10.11
389.388	8.3
389.598	11.51
389.807	12.34
390.017	11.78
390.227	9.7
390.436	6.93
390.646	5.28
390.855	6.94
391.065	6.59
391.274	9.6
391.484	11.77
391.693	12.44
391.903	13.65
392.112	13.14
392.322	10.57
392.531	8.53
392.74	5.98
392.95	3.7
393.159	3.21
393.369	3.91
393.578	4.3
393.787	4.49
393.997	5.15
394.206	6.55
394.415	7.92
394.625	8.96
394.834	9.4
395.043	9.7
395.252	9.28
395.462	8.74
395.671	8.64
395.88	9.2
396.089	9.15
396.298	8.6
396.508	7.46
396.717	7.1
396.926	7.32
397.135	6.86
397.344	5.69
397.553	5.94
397.762	6.39
397.971	5.95
398.181	6.03
398.39	6.62
398.599	6.36
398.808	5.84
399.017	6.2
399.226	6.33
399.435	6.71
399.644	6.87
399.853	7.22
400.062	6.68
400.27	6.61
400.479	6.54
400.688	6.71
400.897	6.46
401.106	6.74
401.315	6.38
401.524	6.33
401.733	6.76
401.941	6.62
402.15	6.6
402.359	6.94
402.568	6.68
402.777	6.31
402.985	6.22
403.194	6.24
403.403	6.29
403.612	6.47
403.82	6.2
404.029	6.59
404.238	6.5
404.446	6.25
404.655	6.29
404.864	6.29
405.072	6.16
405.281	6.36
405.489	6.25
405.698	6.15
405.906	6.1
406.115	6.06
406.324	5.79
406.532	5.76
406.741	5.79
406.949	5.83
407.158	5.79
407.366	5.81
407.574	5.75
407.783	5.66
407.991	5.69
408.2	5.66
408.408	5.59
408.617	5.75
408.825	5.77
409.033	5.8
409.242	5.78
409.45	5.81
409.658	5.8
409.867	5.93
410.075	5.83
410.283	5.74
410.491	5.59
410.7	5.47
410.908	5.26
411.116	5.26
411.324	5.2
411.533	5.19
411.741	5.18
411.949	5.35
412.157	5.4
412.365	5.36
412.573	5.41
412.781	5.48
412.99	5.35
413.198	5.31
413.406	5.38
413.614	5.51
413.822	5.56
414.03	5.45
414.238	5.38
414.446	5.4
414.654	5.34
414.862	5.23
415.07	5.24
415.278	5.28
415.486	5.23
415.694	5.15
415.902	5.24
416.109	5.19
416.317	5.19
416.525	5.19
416.733	5.18
416.941	5.11
417.149	5.23
417.357	5.26
417.564	5.25
417.772	5.29
417.98	5.2
418.188	5.12
418.395	5.03
418.603	4.89
418.811	4.84
419.019	4.77
419.226	4.78
419.434	4.77
419.642	4.86
419.849	4.84
420.057	4.8
420.265	4.8
420.472	4.66
420.68	4.82
420.887	4.77
421.095	4.87
421.302	4.88
421.51	5.01
421.717	4.9
421.925	4.8
422.132	4.72
422.34	4.63
422.547	4.7
422.755	4.67
422.962	4.65
423.17	4.7
423.377	4.68
423.585	4.5
423.792	4.43
423.999	4.53
424.207	4.45
424.414	4.36
424.621	4.45
424.829	4.26
425.036	4.13
425.243	4.13
425.451	4.3
425.658	4.17
425.865	4.48
426.072	4.44
426.28	4.47
426.487	4.27
426.694	4.3
426.901	4.27
427.108	4.38
427.315	4.45
427.523	4.55
427.73	4.69
427.937	4.58
428.144	4.55
428.351	4.48
428.558	4.48
428.765	4.2
428.972	4.23
429.179	4.24
429.386	4.31
429.593	4.33
429.8	4.48
430.007	4.5
430.214	4.56
430.421	4.44
430.628	4.59
430.835	4.7
431.042	4.71
431.249	4.82
431.456	5.01
431.662	4.92
431.869	4.86
432.076	4.9
432.283	4.89
432.49	4.71
432.697	4.66
432.903	4.59
433.11	4.54
433.317	4.46
433.524	4.57
433.73	4.53
433.937	4.61
434.144	4.57
434.35	4.61
434.557	4.53
434.764	4.59
434.97	4.53
435.177	4.61
435.384	4.58
435.59	4.62
435.797	4.75
436.003	4.79
436.21	4.75
436.416	4.75
436.623	4.71
436.829	4.62
437.036	4.71
437.242	4.77
437.449	4.79
437.655	4.93
437.862	4.94
438.068	4.79
438.275	4.8
438.481	4.86
438.687	4.61
438.894	4.65
439.1	4.85
439.307	4.85
439.513	4.8
439.719	4.99
439.926	5.02
440.132	5.15
440.338	5.16
440.544	5.23
440.751	5.3
440.957	5.16
441.163	4.95
441.369	4.98
441.575	4.93
441.782	4.94
441.988	5.14
442.194	5.19
442.4	5.13
442.606	5.06
442.812	5.04
443.018	4.98
443.224	5.01
443.431	5.19
443.637	5.27
443.843	5.27
444.049	5.26
444.255	5.25
444.461	5.15
444.667	5.12
444.873	5.05
445.079	5.04
445.284	5.04
445.49	5
445.696	5.05
445.902	5.14
446.108	5.2
446.314	5.12
446.52	5.16
446.726	5.28
446.931	5.3
447.137	5.2
447.343	5.25
447.549	5.39
447.755	5.22
447.96	5.23
448.166	5.33
448.372	5.45
448.578	5.35
448.783	5.45
448.989	5.51
449.195	5.48
449.4	5.39
449.606	5.4
449.812	5.38
450.017	5.29
450.223	5.33
450.428	5.38
450.634	5.3
450.84	5.38
451.045	5.47
451.251	5.51
451.456	5.52
451.662	5.52
451.867	5.53
452.073	5.52
452.278	5.38
452.483	5.31
452.689	5.31
452.894	5.21
453.1	5.17
453.305	5.32
453.51	5.33
453.716	5.44
453.921	5.46
454.127	5.51
454.332	5.5
454.537	5.5
454.742	5.45
454.948	5.49
455.153	5.44
455.358	5.33
455.563	5.4
455.769	5.45
455.974	5.52
456.179	5.5
456.384	5.49
456.589	5.4
456.795	5.4
457	5.31
457.205	5.24
457.41	5.25
457.615	5.31
457.82	5.33
458.025	5.35
458.23	5.47
458.435	5.43
458.64	5.39
458.845	5.38
459.05	5.3
459.255	5.25
459.46	5.33
459.665	5.37
459.87	5.26
460.075	5.39
460.28	5.41
460.485	5.45
460.69	5.35
460.895	5.46
461.099	5.4
461.304	5.47
461.509	5.45
461.714	5.6
461.919	5.57
462.123	5.55
462.328	5.48
462.533	5.56
462.738	5.58
462.942	5.62
463.147	5.66
463.352	5.73
463.556	5.74
463.761	5.72
463.966	5.68
464.17	5.83
464.375	5.82
464.58	5.79
464.784	5.78
464.989	5.8
465.193	5.71
465.398	5.76
465.602	5.66
465.807	5.57
466.011	5.63
466.216	5.68
466.42	5.7
466.625	5.88
466.829	6.01
467.034	5.99
467.238	5.93
467.443	5.86
467.647	5.84
467.851	5.8
468.056	5.78
468.26	5.88
468.464	5.85
468.669	5.77
468.873	5.77
