Data from Ofra_PS_Phys_1GT42_Reflection_3.txt Node
Date: Tue Jul 20 17:51:58 EDT 2021
User: USUARIO
Spectrometer: FLMT01687
Trigger mode: 0
Integration Time (sec): 1.042999E0
Scans to average: 2
Electric dark correction enabled: true
Nonlinearity correction enabled: false
Boxcar width: 2
XAxis mode: Wavelengths
Number of Pixels in Spectrum: 3648
>>>>>Begin Spectral Data<<<<<
179.494	47.78
179.716	50.38
179.937	24.32
180.158	-277.99
180.38	-251.79
180.601	213.35
180.823	171.35
181.044	102.84
181.265	-368.02
181.486	10.12
181.708	-0.45
181.929	2.08
182.15	22.46
182.372	7.39
182.593	46.95
182.814	52.06
183.035	58.5
183.257	83.82
183.478	116.48
183.699	90.6
183.92	56.28
184.141	58.74
184.363	35.1
184.584	37.19
184.805	42.87
185.026	73.47
185.247	70.25
185.468	67.34
185.689	65.53
185.91	82.66
186.132	72.89
186.353	93.67
186.574	103.47
186.795	119.4
187.016	88.77
187.237	85.31
187.458	60.39
187.679	-11
187.9	25.72
188.121	54.64
188.342	14.72
188.563	26.03
188.784	82.43
189.005	46.42
189.226	19.18
189.447	16.94
189.667	23.03
189.888	6.9
190.109	29.21
190.33	38.98
190.551	36.05
190.772	12.48
190.993	7.31
191.214	7.39
191.434	11.55
191.655	22.15
191.876	50.54
192.097	61.26
192.318	70.56
192.538	102.97
192.759	84.45
192.98	29.22
193.201	51.8
193.421	30.06
193.642	31.15
193.863	14.65
194.083	59.52
194.304	48.23
194.525	48.87
194.745	43.36
194.966	54.02
195.187	31.96
195.407	-11.42
195.628	34.86
195.848	33.82
196.069	48.08
196.29	45.24
196.51	59.82
196.731	26.14
196.951	49.86
197.172	37.46
197.392	68.12
197.613	56.62
197.833	80.74
198.054	3.48
198.274	7.27
198.495	1.78
198.715	33.71
198.936	19.27
199.156	21.41
199.377	20.95
199.597	28.42
199.817	-12.67
200.038	5.98
200.258	29.7
200.479	49.27
200.699	43.55
200.919	45.99
201.14	35.07
201.36	56.14
201.58	18.48
201.801	54.63
202.021	88.23
202.241	72.58
202.461	25.09
202.682	52.62
202.902	1.49
203.122	16.6
203.342	26.57
203.563	38.2
203.783	38.23
204.003	22.28
204.223	-8.5
204.443	-91.71
204.663	-81.32
204.884	-34.61
205.104	2.89
205.324	28.5
205.544	37.63
205.764	42.34
205.984	27.28
206.204	21.42
206.424	-2.24
206.644	-2.44
206.864	5.83
207.084	18.18
207.304	32.81
207.525	49.62
207.745	37.09
207.964	29.22
208.184	26.55
208.404	22.28
208.624	15.39
208.844	24.39
209.064	25.9
209.284	30.54
209.504	29.84
209.724	27.03
209.944	30.65
210.164	43.34
210.384	55.05
210.604	87.25
210.823	96.46
211.043	64.1
211.263	45.58
211.483	39.45
211.703	20.09
211.922	28.49
212.142	46.52
212.362	66.66
212.582	51.68
212.801	39.4
213.021	35.34
213.241	14.83
213.461	43.12
213.68	48.36
213.9	-11.2
214.12	5.86
214.339	-9.34
214.559	-94.73
214.779	-50.18
214.998	23.21
215.218	35.79
215.438	38.75
215.657	62.59
215.877	60.09
216.096	63.73
216.316	48.98
216.535	48.82
216.755	41.81
216.974	33.11
217.194	19.92
217.413	13.43
217.633	3.02
217.852	3.84
218.072	8.27
218.291	13.75
218.511	18.91
218.73	11.3
218.95	-1.41
219.169	5.14
219.389	2.76
219.608	-16.57
219.827	8.89
220.047	49.15
220.266	64.26
220.485	49.75
220.705	63.14
220.924	59.58
221.143	25.36
221.363	15
221.582	24.23
221.801	29.55
222.021	36.58
222.24	36.85
222.459	23.78
222.678	14.37
222.897	44.13
223.117	54.51
223.336	63.51
223.555	73.94
223.774	77.21
223.993	66.38
224.213	56.1
224.432	45.07
224.651	14.27
224.87	28.93
225.089	7.8
225.308	-9.94
225.527	7.93
225.746	1.31
225.965	-12.34
226.184	13.52
226.404	25.69
226.623	13.2
226.842	9.06
227.061	15.57
227.28	-2.54
227.499	-17.38
227.718	-18.5
227.936	-3.9
228.155	1.56
228.374	-27.59
228.593	-21.92
228.812	-18.69
229.031	-8.51
229.25	-21.88
229.469	7.83
229.688	3.13
229.907	2.37
230.125	13.42
230.344	19.82
230.563	19.71
230.782	23.12
231.001	19.22
231.22	13.9
231.438	23.57
231.657	23.21
231.876	41.79
232.095	29.83
232.313	22.92
232.532	18.71
232.751	14.48
232.969	1.06
233.188	19.14
233.407	25.3
233.625	35.32
233.844	43.95
234.063	49.89
234.281	37.95
234.5	42.64
234.719	29.8
234.937	19.84
235.156	31.38
235.374	9.56
235.593	-5.43
235.811	-23.55
236.03	-35.86
236.249	-162.67
236.467	-67.36
236.686	-41.82
236.904	-24.61
237.123	-3.26
237.341	25.94
237.559	39.39
237.778	38.85
237.996	43.08
238.215	43.35
238.433	34.24
238.652	20.84
238.87	20.43
239.088	24.7
239.307	30.32
239.525	30.95
239.743	41
239.962	43.97
240.18	26.54
240.398	25.37
240.617	34.3
240.835	23.7
241.053	20.74
241.271	32.75
241.49	29.67
241.708	11.18
241.926	21.09
242.144	18.99
242.363	-6.74
242.581	-12.33
242.799	2.74
243.017	11.55
243.235	7.91
243.453	12.89
243.672	26.27
243.89	17.43
244.108	12.55
244.326	15.89
244.544	22.76
244.762	7.25
244.98	14.71
245.198	7.21
245.416	13.88
245.634	16.43
245.852	32.31
246.07	42.18
246.288	45.15
246.506	49.54
246.724	59.28
246.942	62.26
247.16	59
247.378	56.97
247.596	54.63
247.814	50.63
248.032	16.71
248.25	2.15
248.468	14.2
248.685	8.21
248.903	5.59
249.121	9.49
249.339	5.18
249.557	3.75
249.775	-0.33
249.992	14.9
250.21	-11.49
250.428	-43.88
250.646	-49.55
250.863	-0.07
251.081	-29.63
251.299	-44.95
251.517	-15.6
251.734	-26.5
251.952	-88.77
252.17	-34.91
252.387	14.71
252.605	2.94
252.823	30.19
253.04	45.09
253.258	47.06
253.475	42.6
253.693	62.67
253.911	59.02
254.128	54.78
254.346	43.21
254.563	51.09
254.781	32.73
254.998	17.48
255.216	19.09
255.433	13.51
255.651	8.73
255.868	15.98
256.086	34.62
256.303	26.97
256.521	30.8
256.738	37.2
256.956	41.64
257.173	20.73
257.39	20.53
257.608	16.66
257.825	40.12
258.043	39.97
258.26	58.1
258.477	54.11
258.695	53.47
258.912	32.73
259.129	43.2
259.346	30.49
259.564	28.2
259.781	37.16
259.998	44.65
260.216	52.07
260.433	42.57
260.65	62.33
260.867	59.11
261.084	63.86
261.302	37.34
261.519	54.83
261.736	35.98
261.953	35.24
262.17	30.8
262.387	55.27
262.604	88.11
262.822	35.26
263.039	10.67
263.256	-2.46
263.473	-46.96
263.69	-24.29
263.907	15.03
264.124	14.27
264.341	41.05
264.558	63.73
264.775	46.28
264.992	31.94
265.209	40.01
265.426	15.43
265.643	7.81
265.86	31.38
266.077	26.39
266.294	23.92
266.51	29.51
266.727	19.75
266.944	17.41
267.161	22.02
267.378	5.13
267.595	12.21
267.812	19.64
268.028	18.95
268.245	18.49
268.462	44.33
268.679	38.74
268.896	39.32
269.112	30.38
269.329	29.58
269.546	-10.91
269.763	-2.21
269.979	28.23
270.196	30.81
270.413	33.64
270.629	16.62
270.846	15.32
271.063	-9.91
271.279	-11.75
271.496	-17.98
271.712	5.61
271.929	18.41
272.146	24.31
272.362	39
272.579	36.93
272.795	30.99
273.012	13.61
273.228	20.19
273.445	5.25
273.661	5.47
273.878	2.8
274.094	10.79
274.311	-0.27
274.527	15.19
274.744	0.32
274.96	5.98
275.177	-14.26
275.393	-8.9
275.609	-12.99
275.826	2.36
276.042	-3.5
276.259	13.89
276.475	20.69
276.691	27.26
276.908	17.21
277.124	25.14
277.34	16.55
277.557	13.06
277.773	-5.61
277.989	2.59
278.205	-1.84
278.422	27.17
278.638	50.58
278.854	66.37
279.07	82.09
279.286	77.25
279.503	51.23
279.719	31.44
279.935	27.41
280.151	35.59
280.367	21.36
280.583	38.41
280.799	51.65
281.016	37.53
281.232	31.32
281.448	41.99
281.664	34.44
281.88	27.48
282.096	33.51
282.312	31.18
282.528	32.17
282.744	27.63
282.96	17.71
283.176	25.39
283.392	20.41
283.608	19.39
283.824	14.83
284.04	11.97
284.256	11.41
284.471	9.97
284.687	20.1
284.903	27.64
285.119	44.13
285.335	9.23
285.551	27.22
285.767	29.66
285.982	27.36
286.198	30.86
286.414	53.89
286.63	39.44
286.846	22.67
287.061	29.36
287.277	31.14
287.493	22.81
287.709	14.45
287.924	26.8
288.14	25.15
288.356	36.67
288.571	38.64
288.787	40.15
289.003	29.16
289.218	33.7
289.434	16.46
289.65	8.99
289.865	7.5
290.081	36.11
290.296	37
290.512	33.09
290.727	25.23
290.943	25.3
291.159	20.24
291.374	-34.05
291.59	-23.01
291.805	-8.67
292.021	-30.11
292.236	-7.71
292.451	17.04
292.667	34.98
292.882	31.22
293.098	47.85
293.313	26.66
293.529	30.53
293.744	19.26
293.959	4.62
294.175	-4.48
294.39	-49
294.605	-47.18
294.821	-86.47
295.036	-70.61
295.251	-47.3
295.467	-23.73
295.682	-13.29
295.897	7.67
296.112	-7.34
296.328	0.18
296.543	18.66
296.758	31.65
296.973	25.54
297.188	25.28
297.404	11.29
297.619	-3.09
297.834	-83.49
298.049	-44.68
298.264	13.63
298.479	4.9
298.694	9.17
298.909	10.09
299.125	26.93
299.34	7.52
299.555	27.23
299.77	-11.97
299.985	-19.16
300.2	-82.03
300.415	-72.37
300.63	-82.35
300.845	-16.47
301.06	6.54
301.275	29.47
301.49	32.11
301.704	40.58
301.919	30.04
302.134	9.4
302.349	9.44
302.564	33.68
302.779	16.32
302.994	27.75
303.209	37.85
303.423	30.73
303.638	18.33
303.853	15.31
304.068	20.57
304.283	7.63
304.497	12.98
304.712	29.64
304.927	42.68
305.142	25.97
305.356	31.64
305.571	31.8
305.786	19.27
306	15.99
306.215	26.34
306.43	22.29
306.644	25.09
306.859	28.18
307.074	17.96
307.288	27.47
307.503	23.95
307.717	24.27
307.932	3.24
308.147	9.83
308.361	0.88
308.576	7.61
308.79	1.21
309.005	23.48
309.219	35.84
309.434	30.77
309.648	8.26
309.863	7.65
310.077	32.93
310.292	40.06
310.506	37.68
310.72	47.08
310.935	47.36
311.149	20.11
311.364	14.19
311.578	22.88
311.792	32.11
312.007	36.02
312.221	39.4
312.435	33.92
312.649	25.78
312.864	33.19
313.078	37.79
313.292	44.34
313.507	54.55
313.721	56.06
313.935	48.59
314.149	49.28
314.363	41.46
314.578	36.03
314.792	29.55
315.006	10.15
315.22	6.57
315.434	17.86
315.648	11.51
315.862	-4.93
316.077	1.05
316.291	-1.46
316.505	-12.76
316.719	-10.68
316.933	1.1
317.147	8.07
317.361	16.04
317.575	21.26
317.789	31.78
318.003	34.41
318.217	36.37
318.431	26.77
318.645	29.56
318.859	32.83
319.073	42.84
319.287	46.56
319.5	58.26
319.714	45.71
319.928	51.89
320.142	40.6
320.356	23.72
320.57	11.07
320.784	21.2
320.997	0.73
321.211	2.59
321.425	23.76
321.639	21.61
321.853	31.74
322.066	33.92
322.28	53.07
322.494	46.51
322.707	54.01
322.921	39
323.135	45.02
323.349	26.24
323.562	6.92
323.776	9.79
323.989	11.19
324.203	-11.57
324.417	-3.43
324.63	6.18
324.844	1.89
325.057	9.95
325.271	34.62
325.485	26.44
325.698	18.76
325.912	36.18
326.125	29.22
326.339	22.91
326.552	18.68
326.766	21.6
326.979	7.91
327.193	20.16
327.406	9.3
327.619	30.15
327.833	43.02
328.046	35.45
328.26	24.24
328.473	41.68
328.686	20.19
328.9	7.62
329.113	31.64
329.326	39.98
329.54	36.58
329.753	33.43
329.966	28.48
330.179	33.49
330.393	24.86
330.606	12.54
330.819	21.12
331.032	26.82
331.246	23.61
331.459	20.79
331.672	33.55
331.885	15.91
332.098	9.3
332.311	-0.05
332.525	4.47
332.738	-10.35
332.951	21.17
333.164	27.06
333.377	23.39
333.59	30.48
333.803	45
334.016	40.7
334.229	31.2
334.442	32.59
334.655	25.15
334.868	28.36
335.081	30.46
335.294	44.29
335.507	48.24
335.72	39.43
335.933	17.02
336.146	20
336.359	24.37
336.572	-2.16
336.785	23.77
336.997	21.72
337.21	25.44
337.423	-2.27
337.636	10.86
337.849	-2.82
338.062	8.89
338.274	12.83
338.487	13.79
338.7	5.7
338.913	0.21
339.125	-1.74
339.338	-37.73
339.551	-14.06
339.763	-4.43
339.976	6.79
340.189	10.76
340.402	15.3
340.614	14.86
340.827	25.47
341.039	26.99
341.252	16.58
341.465	16.07
341.677	6.65
341.89	-14.23
342.102	-1.5
342.315	-14.61
342.527	-16.69
342.74	13.25
342.952	21.58
343.165	22.84
343.377	36.94
343.59	40.78
343.802	31.16
344.015	39.09
344.227	29.3
344.44	29.77
344.652	32.19
344.864	26.83
345.077	7.43
345.289	10.71
345.502	7.98
345.714	-1.64
345.926	12.26
346.139	5.95
346.351	6.64
346.563	25.7
346.775	43.74
346.988	5.61
347.2	-1.7
347.412	-6.72
347.624	-6.81
347.837	-2.38
348.049	11.28
348.261	19.4
348.473	35.82
348.685	43.7
348.897	55.26
349.11	47.5
349.322	44.23
349.534	34.77
349.746	30.56
349.958	19.77
350.17	21.23
350.382	28.1
350.594	18.35
350.806	19.12
351.018	17
351.23	19.05
351.442	13.78
351.654	7.76
351.866	-6.36
352.078	-7
352.29	-13.86
352.502	-10.04
352.714	-2.91
352.926	-14.74
353.138	-3.62
353.35	-6.97
353.561	-20.72
353.773	-8.15
353.985	0.27
354.197	-12.84
354.409	9.68
354.621	15.76
354.832	3.57
355.044	10.61
355.256	10.15
355.468	-2.44
355.679	8.42
355.891	28.54
356.103	28.65
356.314	27.32
356.526	24.57
356.738	11.82
356.949	0.51
357.161	6.9
357.373	12.46
357.584	9.54
357.796	15.44
358.008	29.64
358.219	26.01
358.431	23.98
358.642	27.05
358.854	28.5
359.065	18.56
359.277	4.39
359.488	11.68
359.7	11.61
359.911	9.01
360.123	14.63
360.334	23.26
360.546	15.67
360.757	11.47
360.969	-1.78
361.18	12.7
361.391	15.48
361.603	14.68
361.814	33.52
362.025	37.4
362.237	20.86
362.448	16.7
362.659	12.4
362.871	0.45
363.082	0.43
363.293	10.82
363.504	6.61
363.716	10.95
363.927	0.56
364.138	-8.54
364.349	-33.08
364.56	-35.31
364.772	-28.38
364.983	-12.03
365.194	11.37
365.405	-4.51
365.616	-5.03
365.827	3.22
366.038	7.93
366.25	-3.23
366.461	27.31
366.672	43.09
366.883	32.47
367.094	23.93
367.305	24.57
367.516	15.28
367.727	1.51
367.938	2.67
368.149	2.89
368.36	2.7
368.571	19.1
368.781	22.36
368.992	32.21
369.203	40.96
369.414	34.78
369.625	35.65
369.836	37.44
370.047	29.36
370.258	15.82
370.468	15.1
370.679	8.99
370.89	10.2
371.101	14.9
371.312	10.13
371.522	13.24
371.733	16.57
371.944	30.67
372.155	22.15
372.365	24.82
372.576	23.51
372.787	14.2
372.997	-17.15
373.208	-1.51
373.419	21.32
373.629	16.09
373.84	22.71
374.05	27.4
374.261	19.49
374.472	-3.09
374.682	7
374.893	9.6
375.103	15.98
375.314	26.35
375.524	24.74
375.735	33.71
375.945	29.15
376.156	31.87
376.366	29.83
376.577	45.07
376.787	34.24
376.997	35
377.208	35.31
377.418	24.71
377.629	13.65
377.839	6.51
378.049	10.23
378.26	9.01
378.47	18.33
378.68	14.99
378.89	24.76
379.101	25.01
379.311	9.66
379.521	3.91
379.732	13.68
379.942	12.51
380.152	18.05
380.362	27.99
380.572	30.27
380.783	28.26
380.993	32.38
381.203	22.75
381.413	10.32
381.623	-0.17
381.833	-2.8
382.043	-16.69
382.253	-27.47
382.463	-10.01
382.674	-6.87
382.884	-7.26
383.094	2.89
383.304	8.08
383.514	6.25
383.724	14.74
383.934	12.24
384.144	10.5
384.353	14.48
384.563	11.07
384.773	2.48
384.983	4.2
385.193	-1.6
385.403	-3.06
385.613	14.95
385.823	19.52
386.033	12.71
386.242	18.07
386.452	18.08
386.662	7.09
386.872	5.19
387.082	9.47
387.291	5.62
387.501	7.48
387.711	9.97
387.921	11.33
388.13	6.08
388.34	14.12
388.55	16.35
388.759	12.22
388.969	16.23
389.179	20.16
389.388	17.11
389.598	12.5
389.807	15.45
390.017	10.63
390.227	9.4
390.436	5.38
390.646	5.53
390.855	5.48
391.065	4.72
391.274	5.36
391.484	8.67
391.693	9.14
391.903	9.97
392.112	11.44
392.322	9.58
392.531	5.72
392.74	4.92
392.95	4.99
393.159	3.05
393.369	4.41
393.578	5.23
393.787	4.78
393.997	3.71
394.206	2.77
394.415	4.78
394.625	7.31
394.834	7.81
395.043	7.78
395.252	9.94
395.462	9.44
395.671	7.64
395.88	7.31
396.089	7.32
396.298	6.3
396.508	5.63
396.717	6.19
396.926	6.87
397.135	6.45
397.344	5.51
397.553	5.62
397.762	6
397.971	5.32
398.181	5.36
398.39	5.9
398.599	4.94
398.808	4.11
399.017	4.84
399.226	5.2
399.435	5.23
399.644	5.44
399.853	5.67
400.062	5.02
400.27	4.84
400.479	4.93
400.688	5.13
400.897	5.17
401.106	5.49
401.315	5.29
401.524	5.34
401.733	5.66
401.941	5.69
402.15	5.59
402.359	5.51
402.568	5.31
402.777	5.35
402.985	5.02
403.194	4.91
403.403	5.15
403.612	5.34
403.82	5.04
404.029	5.27
404.238	5.45
404.446	5.26
404.655	5.33
404.864	5.38
405.072	5.34
405.281	5.24
405.489	5.3
405.698	5.17
405.906	5.14
406.115	5.14
406.324	4.98
406.532	4.85
406.741	4.89
406.949	4.86
407.158	4.97
407.366	5.02
407.574	4.9
407.783	4.72
407.991	4.6
408.2	4.43
408.408	4.39
408.617	4.47
408.825	4.53
409.033	4.63
409.242	4.7
409.45	4.57
409.658	4.59
409.867	4.74
410.075	4.68
410.283	4.59
410.491	4.51
410.7	4.54
410.908	4.44
411.116	4.37
411.324	4.34
411.533	4.55
411.741	4.67
411.949	4.71
412.157	4.83
412.365	4.8
412.573	4.61
412.781	4.54
412.99	4.44
413.198	4.36
413.406	4.43
413.614	4.56
413.822	4.55
414.03	4.5
414.238	4.49
414.446	4.38
414.654	4.37
414.862	4.34
415.07	4.25
415.278	4.29
415.486	4.22
415.694	4.21
415.902	4.18
416.109	4.14
416.317	4.27
416.525	4.22
416.733	4.15
416.941	4.14
417.149	4.29
417.357	4.16
417.564	4.36
417.772	4.44
417.98	4.26
418.188	4.21
418.395	4.11
418.603	4.05
418.811	3.84
419.019	3.91
419.226	4.04
419.434	3.97
419.642	3.94
419.849	4.03
420.057	4.05
420.265	3.92
420.472	4.03
420.68	4.06
420.887	4.04
421.095	4.06
421.302	4.09
421.51	4.01
421.717	3.88
421.925	3.95
422.132	3.81
422.34	3.69
422.547	3.61
422.755	3.59
422.962	3.38
423.17	3.48
423.377	3.5
423.585	3.59
423.792	3.69
423.999	3.83
424.207	3.8
424.414	3.73
424.621	3.8
424.829	3.64
425.036	3.6
425.243	3.66
425.451	3.88
425.658	3.75
425.865	3.99
426.072	3.94
426.28	3.93
426.487	3.76
426.694	3.81
426.901	3.79
427.108	3.88
427.315	3.91
427.523	3.93
427.73	4.17
427.937	4.16
428.144	4.08
428.351	4
428.558	3.95
428.765	3.66
428.972	3.61
429.179	3.67
429.386	3.74
429.593	3.75
429.8	3.76
430.007	3.79
430.214	3.78
430.421	3.6
430.628	3.71
430.835	3.8
431.042	3.73
431.249	3.86
431.456	4
431.662	3.99
431.869	4
432.076	4.13
432.283	4.15
432.49	4.28
432.697	4.22
432.903	4.18
433.11	4.08
433.317	3.96
433.524	3.99
433.73	3.97
433.937	4.07
434.144	4.1
434.35	4.23
434.557	4.08
434.764	4.12
434.97	4.01
435.177	4.07
435.384	3.93
435.59	4.01
435.797	4.18
436.003	4.22
436.21	4.25
436.416	4.29
436.623	4.18
436.829	4.16
437.036	4.27
437.242	4.36
437.449	4.29
437.655	4.35
437.862	4.32
438.068	4.18
438.275	4.08
438.481	4.14
438.687	4.19
438.894	4.25
439.1	4.43
439.307	4.43
439.513	4.54
439.719	4.57
439.926	4.5
440.132	4.47
440.338	4.52
440.544	4.48
440.751	4.51
440.957	4.53
441.163	4.51
441.369	4.65
441.575	4.71
441.782	4.75
441.988	4.87
442.194	4.86
442.4	4.78
442.606	4.73
442.812	4.64
443.018	4.54
443.224	4.66
443.431	4.77
443.637	4.86
443.843	4.95
444.049	4.95
444.255	4.89
444.461	4.83
444.667	4.79
444.873	4.78
445.079	4.89
445.284	4.83
445.49	4.81
445.696	4.83
445.902	4.78
446.108	4.79
446.314	4.78
446.52	4.81
446.726	4.98
446.931	5.07
447.137	5
447.343	5.04
447.549	5.14
447.755	5.03
447.96	5.11
448.166	5.28
448.372	5.43
448.578	5.39
448.783	5.41
448.989	5.31
449.195	5.19
449.4	5.13
449.606	5.14
449.812	5.12
450.017	5.28
450.223	5.27
450.428	5.31
450.634	5.27
450.84	5.26
451.045	5.23
451.251	5.31
451.456	5.27
451.662	5.24
451.867	5.36
452.073	5.3
452.278	5.19
452.483	5.24
452.689	5.23
452.894	5.09
453.1	5.12
453.305	5.17
453.51	5.17
453.716	5.22
453.921	5.26
454.127	5.31
454.332	5.42
454.537	5.43
454.742	5.41
454.948	5.45
455.153	5.38
455.358	5.3
455.563	5.29
455.769	5.31
455.974	5.33
456.179	5.36
456.384	5.31
456.589	5.32
456.795	5.32
457	5.29
457.205	5.26
457.41	5.32
457.615	5.39
457.82	5.4
458.025	5.44
458.23	5.35
458.435	5.39
458.64	5.39
458.845	5.45
459.05	5.37
459.255	5.54
459.46	5.57
459.665	5.53
459.87	5.5
460.075	5.56
460.28	5.47
460.485	5.44
460.69	5.41
460.895	5.35
461.099	5.37
461.304	5.53
461.509	5.55
461.714	5.62
461.919	5.72
462.123	5.77
462.328	5.66
462.533	5.72
462.738	5.78
462.942	5.84
463.147	5.79
463.352	5.96
463.556	6.04
463.761	5.98
463.966	5.87
464.17	6.06
464.375	5.94
464.58	5.88
464.784	5.95
464.989	5.97
465.193	5.87
465.398	5.85
465.602	5.89
465.807	5.85
466.011	5.9
466.216	5.91
466.42	6.01
466.625	5.98
466.829	5.99
467.034	6
467.238	6.08
467.443	6.03
467.647	6.07
467.851	6.05
468.056	6.08
468.26	6.04
468.464	6.12
468.669	6.05
468.873	6.2
469.077	6.18
