Data from Ofra_PS_Phys_2GT41_Reflection_1.txt Node
Date: Tue Jul 20 20:41:54 EDT 2021
User: USUARIO
Spectrometer: FLMT01687
Trigger mode: 0
Integration Time (sec): 1.042999E0
Scans to average: 2
Electric dark correction enabled: true
Nonlinearity correction enabled: false
Boxcar width: 2
XAxis mode: Wavelengths
Number of Pixels in Spectrum: 3648
>>>>>Begin Spectral Data<<<<<
179.494	109.39
179.716	124.89
179.937	161.09
180.158	82.58
180.38	71.77
180.601	72.54
180.823	87.28
181.044	32.79
181.265	-117.23
181.486	34.59
181.708	31.3
181.929	78.36
182.15	201.65
182.372	72.3
182.593	33.52
182.814	6.93
183.035	51.69
183.257	16.2
183.478	-117.24
183.699	-76.34
183.92	46.07
184.141	7.37
184.363	44.68
184.584	41.07
184.805	69.14
185.026	50.09
185.247	60.37
185.468	47.92
185.689	57.24
185.91	31.15
186.132	0.27
186.353	-41.17
186.574	-32.77
186.795	-51.16
187.016	-4.14
187.237	13.02
187.458	57.93
187.679	48.01
187.9	52.05
188.121	7.55
188.342	33.57
188.563	24.12
188.784	22.32
189.005	43.98
189.226	62.98
189.447	53.11
189.667	48.32
189.888	33.65
190.109	24.34
190.33	21.65
190.551	36.09
190.772	39.56
190.993	20.43
191.214	23.02
191.434	29.91
191.655	14.98
191.876	22.57
192.097	47.54
192.318	52.91
192.538	49.46
192.759	61.07
192.98	51.16
193.201	35.07
193.421	35.02
193.642	31.23
193.863	26.74
194.083	34.53
194.304	42.42
194.525	35.81
194.745	52.3
194.966	43.79
195.187	35.44
195.407	26.4
195.628	17.48
195.848	-15.21
196.069	10.33
196.29	16.68
196.51	8.46
196.731	16.3
196.951	29.3
197.172	16.02
197.392	33.13
197.613	44.29
197.833	41.54
198.054	55.19
198.274	67.76
198.495	57.27
198.715	59.18
198.936	57.16
199.156	32.87
199.377	25.43
199.597	21.55
199.817	28.82
200.038	34.56
200.258	38.49
200.479	23.84
200.699	34.24
200.919	38.28
201.14	39.07
201.36	27.57
201.58	155.85
201.801	90.37
202.021	18.93
202.241	14.93
202.461	20.56
202.682	-2.42
202.902	-1.41
203.122	39.13
203.342	30.82
203.563	13.11
203.783	28.57
204.003	-9.99
204.223	1.22
204.443	2.27
204.663	12.6
204.884	10.38
205.104	32.11
205.324	36.31
205.544	31.34
205.764	30.25
205.984	32.24
206.204	11.33
206.424	-4.54
206.644	14.38
206.864	14.35
207.084	13.46
207.304	44.04
207.525	53.79
207.745	42.15
207.964	39.42
208.184	41.09
208.404	23.28
208.624	22.36
208.844	28.31
209.064	22.83
209.284	2.95
209.504	3.02
209.724	24.17
209.944	-8.29
210.164	-0.31
210.384	30.46
210.604	51.1
210.823	31.6
211.043	44.03
211.263	42.25
211.483	45.13
211.703	21.92
211.922	18.84
212.142	40.64
212.362	65.07
212.582	33.44
212.801	32.17
213.021	18.9
213.241	4.88
213.461	5.69
213.68	8.48
213.9	6.13
214.12	29.61
214.339	11.85
214.559	19.38
214.779	16.55
214.998	36.73
215.218	31.96
215.438	33.98
215.657	43.55
215.877	38.6
216.096	43.46
216.316	38.2
216.535	51.57
216.755	19.28
216.974	40.63
217.194	3.9
217.413	25.29
217.633	2.26
217.852	5.03
218.072	3.6
218.291	4.75
218.511	14.59
218.73	13.26
218.95	29.95
219.169	18.33
219.389	25.14
219.608	15.21
219.827	37.33
220.047	31.25
220.266	25.71
220.485	32.39
220.705	31.92
220.924	0.48
221.143	6.36
221.363	12.43
221.582	13.49
221.801	-2.26
222.021	33.88
222.24	38.79
222.459	24.55
222.678	9.16
222.897	14.97
223.117	-5.09
223.336	-2.35
223.555	21.62
223.774	34.45
223.993	58.84
224.213	54.97
224.432	53.76
224.651	53.05
224.87	43.69
225.089	5.93
225.308	2.84
225.527	-5.13
225.746	-11.87
225.965	13.46
226.184	30.68
226.404	34.41
226.623	13.91
226.842	7.86
227.061	15.5
227.28	1.99
227.499	-3.99
227.718	14.09
227.936	30.62
228.155	13.41
228.374	10.48
228.593	13.05
228.812	1.16
229.031	7.23
229.25	5.26
229.469	7.4
229.688	5.11
229.907	28.25
230.125	13.64
230.344	19
230.563	30.39
230.782	28.35
231.001	28.9
231.22	52.54
231.438	61.28
231.657	60.6
231.876	67.53
232.095	47.87
232.313	13.3
232.532	21.03
232.751	36.86
232.969	22.83
233.188	29.33
233.407	46.06
233.625	40.5
233.844	34.57
234.063	32.77
234.281	29.68
234.5	23.22
234.719	26.13
234.937	25.36
235.156	36.82
235.374	43.19
235.593	49.06
235.811	39.36
236.03	47.78
236.249	34.58
236.467	20.13
236.686	3.61
236.904	17.17
237.123	14.21
237.341	20.37
237.559	16.27
237.778	15.06
237.996	3.28
238.215	-7.24
238.433	6.48
238.652	21.97
238.87	10.68
239.088	3.81
239.307	22.39
239.525	21.05
239.743	13.72
239.962	49.16
240.18	61.59
240.398	54.86
240.617	53
240.835	46.35
241.053	32.37
241.271	42.64
241.49	33.1
241.708	34.14
241.926	45.57
242.144	44.6
242.363	18.75
242.581	32.12
242.799	22.83
243.017	15.08
243.235	17.02
243.453	19.3
243.672	13.56
243.89	15.16
244.108	12.91
244.326	28.81
244.544	30.42
244.762	33.83
244.98	30.37
245.198	40.67
245.416	25.4
245.634	24.07
245.852	15.52
246.07	15.97
246.288	5.08
246.506	2.65
246.724	-1.8
246.942	-2.24
247.16	-10.53
247.378	7.92
247.596	24.55
247.814	28.29
248.032	37.17
248.25	39.77
248.468	20.26
248.685	29.19
248.903	25.52
249.121	29.21
249.339	31.61
249.557	27.41
249.775	11.26
249.992	7.43
250.21	1.69
250.428	-7.97
250.646	33.38
250.863	25.64
251.081	-2.94
251.299	-4.58
251.517	-0.92
251.734	-29.8
251.952	-33.92
252.17	-8.95
252.387	-9.75
252.605	-6.27
252.823	16.48
253.04	34.43
253.258	29.92
253.475	31.36
253.693	51.17
253.911	57.59
254.128	22.21
254.346	70.24
254.563	62.23
254.781	29.21
254.998	32.98
255.216	51.05
255.433	11.7
255.651	38.35
255.868	104.39
256.086	67.5
256.303	51.81
256.521	49.84
256.738	35.8
256.956	11.73
257.173	13.6
257.39	19.53
257.608	28.86
257.825	34.46
258.043	43.84
258.26	46.47
258.477	57.77
258.695	51.8
258.912	44.28
259.129	38.35
259.346	34.31
259.564	8.6
259.781	26.2
259.998	40.46
260.216	33.18
260.433	47.06
260.65	56.83
260.867	46.55
261.084	38.2
261.302	28.75
261.519	20.77
261.736	14.43
261.953	27.22
262.17	4.77
262.387	37.19
262.604	36.35
262.822	44
263.039	33.95
263.256	42.8
263.473	34.41
263.69	18.07
263.907	20.35
264.124	-9.6
264.341	-17.89
264.558	-34.63
264.775	-42.3
264.992	-4.16
265.209	51.25
265.426	75.06
265.643	81.08
265.86	78.71
266.077	57.58
266.294	49.06
266.51	44.84
266.727	39.34
266.944	21.61
267.161	15.74
267.378	18.59
267.595	0.9
267.812	-8.22
268.028	-18.23
268.245	-8.64
268.462	-20.33
268.679	0.39
268.896	17.82
269.112	44.04
269.329	45.45
269.546	59.86
269.763	39.91
269.979	40.73
270.196	25.52
270.413	28.84
270.629	-0.01
270.846	17.01
271.063	18.28
271.279	14.74
271.496	20.6
271.712	49.27
271.929	36.51
272.146	18.31
272.362	27.57
272.579	15.44
272.795	6.55
273.012	-1.14
273.228	-4.47
273.445	-19.76
273.661	-38.08
273.878	-23.35
274.094	9.88
274.311	22.55
274.527	35.87
274.744	48.23
274.96	53.4
275.177	43.03
275.393	37.66
275.609	17.98
275.826	6.72
276.042	-26.95
276.259	-24.82
276.475	4.82
276.691	-0.26
276.908	6.75
277.124	28.97
277.34	47.06
277.557	34.72
277.773	34.67
277.989	29.28
278.205	37.47
278.422	27.62
278.638	34.04
278.854	33.98
279.07	33.69
279.286	14.02
279.503	17.97
279.719	-0.56
279.935	24.11
280.151	32.52
280.367	27.01
280.583	16.44
280.799	10.89
281.016	-15.39
281.232	-22.37
281.448	-8.67
281.664	3.65
281.88	11.55
282.096	10.17
282.312	15.12
282.528	23.51
282.744	14.9
282.96	24.09
283.176	25.72
283.392	12.98
283.608	2.03
283.824	9.96
284.04	7.39
284.256	19.83
284.471	26.6
284.687	41.69
284.903	42.24
285.119	51.14
285.335	58.09
285.551	49.67
285.767	37.15
285.982	36.5
286.198	25.9
286.414	24.08
286.63	27.02
286.846	18.46
287.061	-2.2
287.277	-8.88
287.493	0.64
287.709	-9.08
287.924	6.5
288.14	25.1
288.356	34.24
288.571	28.05
288.787	25.34
289.003	14.81
289.218	9.01
289.434	4.52
289.65	29.5
289.865	53.8
290.081	62.03
290.296	58.06
290.512	57.34
290.727	37.39
290.943	26.06
291.159	26.93
291.374	37.35
291.59	24.85
291.805	24.52
292.021	19.14
292.236	28.44
292.451	35.76
292.667	46.71
292.882	38.87
293.098	54.04
293.313	49.24
293.529	33.31
293.744	22.43
293.959	27.79
294.175	30.37
294.39	14.53
294.605	15.75
294.821	25.77
295.036	10.25
295.251	-8.87
295.467	-13.53
295.682	2.64
295.897	1.99
296.112	15.16
296.328	14.21
296.543	22.27
296.758	16.8
296.973	11.98
297.188	2.49
297.404	-1.29
297.619	-1.61
297.834	3.98
298.049	16.53
298.264	17.75
298.479	10.75
298.694	10.03
298.909	17.58
299.125	21.04
299.34	15.99
299.555	27.04
299.77	43.62
299.985	43.23
300.2	30.05
300.415	35.25
300.63	29.13
300.845	-3.3
301.06	12.36
301.275	22.22
301.49	15.58
301.704	38.03
301.919	53.55
302.134	37.72
302.349	26.54
302.564	29.86
302.779	26.42
302.994	5.49
303.209	-15.27
303.423	-1.16
303.638	13.89
303.853	24.55
304.068	43.56
304.283	49.18
304.497	30.11
304.712	26.8
304.927	6.6
305.142	8.26
305.356	14.78
305.571	31.74
305.786	23.5
306	39
306.215	16.36
306.43	17.57
306.644	28.08
306.859	40.81
307.074	44.67
307.288	53.75
307.503	56.81
307.717	42.87
307.932	32.55
308.147	20.85
308.361	21.08
308.576	17.09
308.79	19.98
309.005	14
309.219	20.4
309.434	13.88
309.648	20.77
309.863	15.18
310.077	23.53
310.292	35.82
310.506	46.48
310.72	46.09
310.935	44.98
311.149	36.05
311.364	20.78
311.578	40.15
311.792	29.1
312.007	26.2
312.221	37.96
312.435	38.03
312.649	8.87
312.864	37.27
313.078	43.31
313.292	36.69
313.507	33.71
313.721	35.57
313.935	13.73
314.149	20.68
314.363	15.46
314.578	4.78
314.792	9.29
315.006	18.74
315.22	2.16
315.434	1.47
315.648	26.16
315.862	37.91
316.077	45.54
316.291	43.57
316.505	44.94
316.719	42.51
316.933	27.74
317.147	11.21
317.361	8.87
317.575	9.68
317.789	-17.41
318.003	-22.46
318.217	-13.12
318.431	12.5
318.645	20.76
318.859	24.11
319.073	26.08
319.287	24.97
319.5	20.14
319.714	10.88
319.928	31.1
320.142	34.91
320.356	28.98
320.57	22.61
320.784	26.62
320.997	23.46
321.211	25.61
321.425	37.59
321.639	49.97
321.853	44.8
322.066	32.7
322.28	32.46
322.494	26.64
322.707	14.81
322.921	17.81
323.135	23.13
323.349	12.3
323.562	8.17
323.776	12.97
323.989	23.05
324.203	16.04
324.417	37.59
324.63	42.4
324.844	41.25
325.057	45.55
325.271	45.09
325.485	31.53
325.698	27.73
325.912	34.4
326.125	26.36
326.339	42.68
326.552	38.34
326.766	47.45
326.979	28.84
327.193	15.83
327.406	4.56
327.619	13.22
327.833	-11.65
328.046	3.47
328.26	-9.13
328.473	-4.99
328.686	-25.72
328.9	-24.28
329.113	-22.96
329.326	4.7
329.54	1.08
329.753	13.21
329.966	17.09
330.179	14.51
330.393	5.91
330.606	10.28
330.819	-2.23
331.032	2.85
331.246	20.1
331.459	22.48
331.672	-6.54
331.885	19.05
332.098	14.7
332.311	-6.95
332.525	19.4
332.738	35.67
332.951	26.99
333.164	39.9
333.377	46.31
333.59	22.36
333.803	22.25
334.016	25.63
334.229	10.15
334.442	-13.27
334.655	-0.02
334.868	-1.3
335.081	-6.45
335.294	12.86
335.507	24.31
335.72	25.7
335.933	24.22
336.146	31.38
336.359	17.84
336.572	27.38
336.785	16.42
336.997	18.18
337.21	18.86
337.423	41.21
337.636	30.8
337.849	50.32
338.062	60.32
338.274	71.61
338.487	67.78
338.7	70.24
338.913	56.31
339.125	49.13
339.338	31.38
339.551	26.6
339.763	28.24
339.976	27.18
340.189	24.83
340.402	29.18
340.614	17.73
340.827	11.84
341.039	23.03
341.252	26.64
341.465	27.63
341.677	34.38
341.89	-5.52
342.102	9.62
342.315	24.72
342.527	22.32
342.74	19.11
342.952	40.05
343.165	28.65
343.377	24.26
343.59	28.24
343.802	36.63
344.015	33.71
344.227	29.52
344.44	26.71
344.652	14.2
344.864	7.44
345.077	-7
345.289	-1.95
345.502	-10.65
345.714	-25.3
345.926	-27.28
346.139	-9.67
346.351	-16.32
346.563	-6.28
346.775	7.93
346.988	4.61
347.2	2.66
347.412	19.51
347.624	29.94
347.837	16.7
348.049	9.66
348.261	13.38
348.473	-27.68
348.685	-17.82
348.897	7.93
349.11	24.47
349.322	35.97
349.534	54.51
349.746	49.61
349.958	40.54
350.17	38.39
350.382	34.8
350.594	35.39
350.806	36.26
351.018	36.48
351.23	36.78
351.442	33.31
351.654	25.25
351.866	19.36
352.078	17.63
352.29	19.49
352.502	19.25
352.714	16.92
352.926	25.24
353.138	21.05
353.35	17.03
353.561	18.85
353.773	30.56
353.985	33.84
354.197	36.58
354.409	43.8
354.621	42.97
354.832	34.19
355.044	34.13
355.256	35.33
355.468	31.98
355.679	26.71
355.891	19.2
356.103	9.37
356.314	19.91
356.526	29.42
356.738	28.79
356.949	46.06
357.161	49.91
357.373	50.44
357.584	46.33
357.796	45.73
358.008	46.68
358.219	36.52
358.431	37
358.642	21.54
358.854	15.19
359.065	6.63
359.277	8.92
359.488	14.14
359.7	25.1
359.911	49.18
360.123	40
360.334	35.29
360.546	30.41
360.757	29.86
360.969	17.86
361.18	23.05
361.391	26.25
361.603	26.5
361.814	22.67
362.025	20.26
362.237	-0.01
362.448	-0.93
362.659	-13.11
362.871	-1.26
363.082	-1.15
363.293	15.49
363.504	17.93
363.716	23.91
363.927	12.11
364.138	21.58
364.349	17.33
364.56	2.25
364.772	-3.97
364.983	0.16
365.194	-7.55
365.405	-23.19
365.616	-5.74
365.827	7.7
366.038	0.39
366.25	5
366.461	17.44
366.672	8.79
366.883	-13.18
367.094	-2.24
367.305	-6.16
367.516	-16.17
367.727	1.7
367.938	23.7
368.149	16.39
368.36	17.62
368.571	24.4
368.781	12.92
368.992	4.69
369.203	14.93
369.414	5.67
369.625	-0.18
369.836	2.81
370.047	-3.52
370.258	-4.22
370.468	11.97
370.679	19.14
370.89	12.19
371.101	21.88
371.312	22.27
371.522	14.37
371.733	13.71
371.944	21.14
372.155	25.16
372.365	20.77
372.576	17.1
372.787	6.31
372.997	13.22
373.208	4.43
373.419	6.53
373.629	7.04
373.84	9.31
374.05	-2.07
374.261	-2.08
374.472	0.82
374.682	9.75
374.893	7.99
375.103	0.11
375.314	5.38
375.524	13.52
375.735	7.02
375.945	14.9
376.156	21.32
376.366	22.26
376.577	9.72
376.787	8.94
376.997	9.85
377.208	18.63
377.418	10.8
377.629	12.67
377.839	21.19
378.049	28.04
378.26	22.68
378.47	22.09
378.68	33.85
378.89	26.68
379.101	15.29
379.311	24.72
379.521	30.7
379.732	8.24
379.942	13.96
380.152	16.83
380.362	13.35
380.572	19.23
380.783	22.73
380.993	22.73
381.203	17.21
381.413	-2.63
381.623	-0.12
381.833	3.11
382.043	7.19
382.253	10.88
382.463	25.22
382.674	20.88
382.884	19.15
383.094	10.76
383.304	16.18
383.514	18.9
383.724	9.51
383.934	11.01
384.144	14.79
384.353	10.13
384.563	5.31
384.773	15.77
384.983	10.91
385.193	3.49
385.403	4.2
385.613	11.26
385.823	1.95
386.033	1.48
386.242	0.67
386.452	9.1
386.662	6.24
386.872	10.11
387.082	11.82
387.291	15.18
387.501	13.04
387.711	10.52
387.921	10.37
388.13	12.55
388.34	11.22
388.55	8.01
388.759	6.75
388.969	3.44
389.179	7.96
389.388	7.65
389.598	7.48
389.807	12.59
390.017	15.02
390.227	8.16
390.436	10.83
390.646	10.71
390.855	9.16
391.065	8.93
391.274	9.25
391.484	8.39
391.693	10.78
391.903	10.52
392.112	8.5
392.322	8.15
392.531	7.04
392.74	4.63
392.95	1.99
393.159	1.59
393.369	3.85
393.578	5.04
393.787	4.37
393.997	6.39
394.206	7.93
394.415	7.35
394.625	7.49
394.834	7.52
395.043	6.68
395.252	6.61
395.462	6.1
395.671	5.72
395.88	6.88
396.089	5.78
396.298	5.54
396.508	5.62
396.717	5.39
396.926	4.73
397.135	5.76
397.344	6.07
397.553	6.39
397.762	7.16
397.971	6.64
398.181	5.82
398.39	5.18
398.599	4.92
398.808	3.43
399.017	4.07
399.226	5.33
399.435	5.38
399.644	5.49
399.853	6.34
400.062	5.56
400.27	5.26
400.479	5.55
400.688	5.79
400.897	5.47
401.106	5.78
401.315	5.39
401.524	5.35
401.733	4.91
401.941	4.74
402.15	4.55
402.359	4.69
402.568	5.14
402.777	5.12
402.985	4.84
403.194	4.95
403.403	4.91
403.612	4.48
403.82	4.44
404.029	4.88
404.238	4.9
404.446	4.78
404.655	4.57
404.864	4.75
405.072	4.65
405.281	4.83
405.489	4.76
405.698	4.91
405.906	4.94
406.115	4.87
406.324	4.6
406.532	4.53
406.741	4.41
406.949	4.51
407.158	4.62
407.366	4.66
407.574	4.55
407.783	4.62
407.991	4.44
408.2	4.48
408.408	4.52
408.617	4.65
408.825	4.68
409.033	4.75
409.242	4.57
409.45	4.55
409.658	4.62
409.867	4.5
410.075	4.56
410.283	4.52
410.491	4.51
410.7	4.67
410.908	4.68
411.116	4.76
411.324	4.88
411.533	4.94
411.741	4.87
411.949	5
412.157	4.79
412.365	4.81
412.573	4.59
412.781	4.39
412.99	4.27
413.198	4.34
413.406	4.21
413.614	4.34
413.822	4.47
414.03	4.57
414.238	4.5
414.446	4.58
414.654	4.6
414.862	4.53
415.07	4.52
415.278	4.53
415.486	4.45
415.694	4.6
415.902	4.56
416.109	4.37
416.317	4.4
416.525	4.46
416.733	4.19
416.941	4.3
417.149	4.29
417.357	4.2
417.564	4.1
417.772	4.08
417.98	4.19
418.188	4.22
418.395	4.23
418.603	4.31
418.811	4.53
419.019	4.25
419.226	4.38
419.434	4.29
419.642	4.15
419.849	3.92
420.057	3.99
420.265	3.97
420.472	4
420.68	4.19
420.887	4.38
421.095	4.41
421.302	4.2
421.51	4.03
421.717	3.87
421.925	3.95
422.132	3.9
422.34	3.94
422.547	3.98
422.755	4.09
422.962	3.86
423.17	3.74
423.377	3.91
423.585	4.05
423.792	3.85
423.999	4.09
424.207	4.16
424.414	4.09
424.621	4.05
424.829	3.97
425.036	3.62
425.243	3.83
425.451	3.81
425.658	3.62
425.865	3.93
426.072	4.11
426.28	3.96
426.487	4.05
426.694	4.02
426.901	3.87
427.108	3.76
427.315	3.76
427.523	3.75
427.73	3.86
427.937	3.86
428.144	3.79
428.351	3.77
428.558	3.77
428.765	3.82
428.972	3.8
429.179	3.89
429.386	3.92
429.593	3.85
429.8	3.8
430.007	3.83
430.214	3.96
430.421	3.92
430.628	3.86
430.835	3.91
431.042	3.78
431.249	3.66
431.456	3.76
431.662	3.77
431.869	3.82
432.076	3.92
432.283	3.81
432.49	3.73
432.697	3.66
432.903	3.56
433.11	3.54
433.317	3.66
433.524	3.71
433.73	3.66
433.937	3.84
434.144	3.84
434.35	3.86
434.557	3.73
434.764	3.81
434.97	3.68
435.177	3.64
435.384	3.55
435.59	3.71
435.797	3.73
436.003	3.8
436.21	3.85
436.416	3.69
436.623	3.57
436.829	3.55
437.036	3.52
437.242	3.57
437.449	3.86
437.655	3.87
437.862	3.83
438.068	3.87
438.275	3.8
438.481	3.75
438.687	3.61
438.894	3.57
439.1	3.41
439.307	3.45
439.513	3.53
439.719	3.68
439.926	3.8
440.132	3.84
440.338	3.78
440.544	3.53
440.751	3.48
440.957	3.46
441.163	3.44
441.369	3.59
441.575	3.71
441.782	3.64
441.988	3.61
442.194	3.58
442.4	3.51
442.606	3.61
442.812	3.71
443.018	3.64
443.224	3.59
443.431	3.56
443.637	3.46
443.843	3.47
444.049	3.53
444.255	3.68
444.461	3.66
444.667	3.7
444.873	3.71
445.079	3.75
445.284	3.61
445.49	3.59
445.696	3.46
445.902	3.46
446.108	3.49
446.314	3.61
446.52	3.55
446.726	3.69
446.931	3.66
447.137	3.62
447.343	3.64
447.549	3.71
447.755	3.62
447.96	3.68
448.166	3.65
448.372	3.65
448.578	3.72
448.783	3.64
448.989	3.62
449.195	3.54
449.4	3.46
449.606	3.34
449.812	3.48
450.017	3.41
450.223	3.44
450.428	3.5
450.634	3.56
450.84	3.58
451.045	3.65
451.251	3.7
451.456	3.66
451.662	3.67
451.867	3.79
452.073	3.78
452.278	3.81
452.483	3.78
452.689	3.76
452.894	3.72
453.1	3.65
453.305	3.59
453.51	3.67
453.716	3.74
453.921	3.62
454.127	3.74
454.332	3.7
454.537	3.62
454.742	3.55
454.948	3.58
455.153	3.48
455.358	3.58
455.563	3.63
455.769	3.57
455.974	3.55
456.179	3.59
456.384	3.54
456.589	3.5
456.795	3.58
457	3.58
457.205	3.61
457.41	3.66
457.615	3.63
457.82	3.62
458.025	3.56
458.23	3.49
458.435	3.42
458.64	3.42
458.845	3.46
459.05	3.47
459.255	3.56
459.46	3.62
459.665	3.68
459.87	3.61
460.075	3.62
460.28	3.62
460.485	3.56
460.69	3.62
460.895	3.69
461.099	3.76
461.304	3.67
461.509	3.67
461.714	3.6
461.919	3.59
462.123	3.59
462.328	3.61
462.533	3.77
462.738	3.8
462.942	3.76
463.147	3.7
463.352	3.68
463.556	3.56
463.761	3.5
463.966	3.49
464.17	3.58
464.375	3.66
464.58	3.73
464.784	3.8
464.989	3.83
465.193	3.85
465.398	3.92
465.602	3.89
465.807	3.88
466.011	3.92
466.216	3.79
466.42	3.75
466.625	3.85
466.829	3.79
467.034	3.83
467.238	3.93
467.443	3.89
467.647	3.76
467.851	3.65
468.056	3.54
468.26	3.56
468.464	3.55
468.669	3.61
468.873	3.75
469.077	3.71
469.282	3.62
