Data from Ofra_PS_Phys_2CX10_Reflection_1.txt Node
Date: Tue Jul 20 14:47:17 EDT 2021
User: USUARIO
Spectrometer: FLMT01687
Trigger mode: 0
Integration Time (sec): 1.200000E0
Scans to average: 2
Electric dark correction enabled: true
Nonlinearity correction enabled: false
Boxcar width: 2
XAxis mode: Wavelengths
Number of Pixels in Spectrum: 3648
>>>>>Begin Spectral Data<<<<<
179.494	-32.73
179.716	3.03
179.937	519.49
180.158	107.22
180.38	123.78
180.601	95.38
180.823	258.85
181.044	100.47
181.265	5.71
181.486	324.52
181.708	-231.84
181.929	100.39
182.15	62.68
182.372	-181.3
182.593	73.25
182.814	4593.33
183.035	18.73
183.257	34.16
183.478	42.41
183.699	62.11
183.92	50.58
184.141	67.49
184.363	59.36
184.584	44.89
184.805	37.92
185.026	34.79
185.247	31.13
185.468	29.59
185.689	52.93
185.91	46.91
186.132	55.06
186.353	50.84
186.574	50.93
186.795	33.28
187.016	45.54
187.237	47.09
187.458	49.47
187.679	58.99
187.9	70.04
188.121	45.65
188.342	53.87
188.563	61.12
188.784	35.82
189.005	37.24
189.226	48.78
189.447	18.16
189.667	24.21
189.888	36.77
190.109	19.06
190.33	17.46
190.551	32.51
190.772	25.02
190.993	24.59
191.214	31.84
191.434	39.03
191.655	39.08
191.876	49.75
192.097	44.78
192.318	43.56
192.538	49.37
192.759	51.22
192.98	42.15
193.201	41.75
193.421	32.74
193.642	32.1
193.863	23.16
194.083	26.65
194.304	34.73
194.525	27.84
194.745	38.59
194.966	42.65
195.187	26.29
195.407	3.12
195.628	16.76
195.848	-2.68
196.069	-1.38
196.29	2.61
196.51	25.57
196.731	15.22
196.951	11.56
197.172	11.65
197.392	18.1
197.613	6.44
197.833	18.25
198.054	18.87
198.274	17.06
198.495	11.25
198.715	-4.67
198.936	4.21
199.156	5.84
199.377	-25.7
199.597	20.09
199.817	39.31
200.038	-5.99
200.258	-5.07
200.479	18.15
200.699	-2.36
200.919	-2.77
201.14	33.16
201.36	40.63
201.58	41.49
201.801	53.14
202.021	50.17
202.241	46.74
202.461	40.34
202.682	40.02
202.902	27.8
203.122	23.97
203.342	21.61
203.563	20.95
203.783	17.67
204.003	26.6
204.223	48.92
204.443	40.73
204.663	41.8
204.884	71.17
205.104	82.51
205.324	63.5
205.544	73.36
205.764	65.31
205.984	29.33
206.204	6.24
206.424	24.01
206.644	20.63
206.864	19.22
207.084	20.58
207.304	25.68
207.525	7.27
207.745	6.74
207.964	14.54
208.184	35.72
208.404	29.59
208.624	42.65
208.844	31.89
209.064	25.46
209.284	25.02
209.504	30.17
209.724	13.91
209.944	44.53
210.164	59.72
210.384	72.74
210.604	65.56
210.823	55.79
211.043	52.08
211.263	34.33
211.483	23.37
211.703	22.77
211.922	38.31
212.142	30.33
212.362	27.27
212.582	8.14
212.801	15.65
213.021	16.96
213.241	24.66
213.461	30.86
213.68	49.96
213.9	44.27
214.12	38.01
214.339	24.74
214.559	19.67
214.779	22.67
214.998	25.43
215.218	18.32
215.438	30.83
215.657	46.94
215.877	41.88
216.096	37.72
216.316	37.21
216.535	20.33
216.755	27.83
216.974	23.22
217.194	32.92
217.413	36.73
217.633	52.87
217.852	55.87
218.072	62.6
218.291	73.23
218.511	69.47
218.73	48.91
218.95	43.1
219.169	38.82
219.389	16.38
219.608	16.75
219.827	32.43
220.047	24.63
220.266	18.29
220.485	17.79
220.705	20.8
220.924	19.54
221.143	30.16
221.363	41.13
221.582	46
221.801	24.31
222.021	16.93
222.24	11.51
222.459	16.58
222.678	9.33
222.897	19.16
223.117	11.67
223.336	-2.39
223.555	-33.74
223.774	-15.48
223.993	9.54
224.213	29.34
224.432	56.16
224.651	59.45
224.87	50.66
225.089	43.86
225.308	76.51
225.527	65.61
225.746	65.25
225.965	53.74
226.184	58.44
226.404	27.98
226.623	36.63
226.842	35.92
227.061	39.99
227.28	52.11
227.499	53.19
227.718	64.41
227.936	70.82
228.155	70.42
228.374	55.62
228.593	45.4
228.812	35.64
229.031	26.27
229.25	19.91
229.469	19.64
229.688	22.2
229.907	22.65
230.125	23.86
230.344	17.64
230.563	22.38
230.782	6.4
231.001	13.34
231.22	34.57
231.438	64.43
231.657	67.02
231.876	98.37
232.095	91.77
232.313	71.99
232.532	61.83
232.751	66.61
232.969	52.72
233.188	52.38
233.407	45.65
233.625	24.31
233.844	16.73
234.063	16.4
234.281	12.23
234.5	25.15
234.719	29.68
234.937	28.95
235.156	51.72
235.374	58.85
235.593	51.67
235.811	49.91
236.03	45.56
236.249	28.14
236.467	32.12
236.686	21.92
236.904	24.87
237.123	21.37
237.341	25.09
237.559	15.78
237.778	33.6
237.996	46.92
238.215	54.4
238.433	44.99
238.652	39.22
238.87	24.85
239.088	14.25
239.307	21.53
239.525	30.8
239.743	47.51
239.962	40.21
240.18	36.27
240.398	29.58
240.617	21.86
240.835	19
241.053	26.93
241.271	43.41
241.49	44.67
241.708	56.36
241.926	57.53
242.144	63.75
242.363	67.44
242.581	68.57
242.799	68.32
243.017	57.27
243.235	47.16
243.453	30.98
243.672	18.21
243.89	11.86
244.108	17
244.326	12.24
244.544	21.27
244.762	34.92
244.98	26.42
245.198	22.46
245.416	28.48
245.634	31.42
245.852	47.08
246.07	59.19
246.288	58.71
246.506	57.47
246.724	56.91
246.942	36.73
247.16	40.44
247.378	39.36
247.596	33.76
247.814	29.34
248.032	28.84
248.25	27.48
248.468	26.14
248.685	22.05
248.903	26.71
249.121	30.76
249.339	9.14
249.557	4.04
249.775	15.89
249.992	-2.14
250.21	-5.28
250.428	16.92
250.646	24.67
250.863	20.62
251.081	36.52
251.299	46.99
251.517	54.24
251.734	41.79
251.952	29.68
252.17	21.92
252.387	13.98
252.605	7.82
252.823	4.78
253.04	20.83
253.258	22.12
253.475	27.82
253.693	33.55
253.911	41.29
254.128	48.23
254.346	44.08
254.563	30.29
254.781	29.64
254.998	36.73
255.216	30.56
255.433	36.49
255.651	46.54
255.868	44.3
256.086	34.99
256.303	31.82
256.521	39.9
256.738	31.59
256.956	23.3
257.173	29.16
257.39	33.11
257.608	7.72
257.825	5.69
258.043	3.05
258.26	-4.26
258.477	-5.24
258.695	2.55
258.912	21.93
259.129	19.1
259.346	26.04
259.564	9.27
259.781	6.07
259.998	27.25
260.216	41.4
260.433	51.96
260.65	60.35
260.867	55.5
261.084	26.23
261.302	20.65
261.519	-11.5
261.736	-0.8
261.953	22.75
262.17	47.55
262.387	51.17
262.604	59.66
262.822	60.36
263.039	42.96
263.256	27.23
263.473	21.68
263.69	23.16
263.907	14.42
264.124	19.82
264.341	23.17
264.558	22.59
264.775	27.92
264.992	31.13
265.209	40.53
265.426	50.27
265.643	53.12
265.86	39.45
266.077	40.76
266.294	21.18
266.51	19
266.727	25.18
266.944	24.92
267.161	22.02
267.378	35.49
267.595	34.11
267.812	28.62
268.028	42.28
268.245	43.36
268.462	32.31
268.679	26.09
268.896	16.75
269.112	30.11
269.329	33.87
269.546	28.56
269.763	29.92
269.979	39.09
270.196	23.32
270.413	28.7
270.629	24.91
270.846	23.61
271.063	23.39
271.279	21.04
271.496	10.72
271.712	26.81
271.929	42.12
272.146	38.48
272.362	32.9
272.579	34.61
272.795	32.45
273.012	21.41
273.228	26.45
273.445	31.51
273.661	37.83
273.878	31.16
274.094	27.77
274.311	11.5
274.527	7.27
274.744	-17.11
274.96	-10.54
275.177	-4.02
275.393	2.43
275.609	14.25
275.826	33.33
276.042	34.46
276.259	33.13
276.475	44.47
276.691	45.26
276.908	51.69
277.124	59.37
277.34	64.26
277.557	54.27
277.773	41.8
277.989	38.16
278.205	37.47
278.422	30.24
278.638	33.38
278.854	48
279.07	38.63
279.286	40.48
279.503	40.41
279.719	34.25
279.935	24.63
280.151	26.17
280.367	27.97
280.583	24.63
280.799	22.63
281.016	36.46
281.232	36.93
281.448	24.53
281.664	29.34
281.88	39.52
282.096	36.7
282.312	40.4
282.528	51.45
282.744	48.02
282.96	32.52
283.176	31.79
283.392	34.07
283.608	21.45
283.824	17.98
284.04	29.06
284.256	30.21
284.471	16.54
284.687	26.89
284.903	19.42
285.119	14.57
285.335	19.11
285.551	30.65
285.767	14.64
285.982	25.36
286.198	24.65
286.414	24.94
286.63	27.46
286.846	28.79
287.061	39.71
287.277	39.88
287.493	40.02
287.709	39.61
287.924	42.2
288.14	40.26
288.356	51.05
288.571	48.43
288.787	39.71
289.003	41.95
289.218	32.42
289.434	22.71
289.65	16.63
289.865	25.69
290.081	30.79
290.296	24.04
290.512	24.27
290.727	30.01
290.943	32.14
291.159	28.01
291.374	41.03
291.59	38.67
291.805	28.86
292.021	17.01
292.236	18.16
292.451	27.45
292.667	30.46
292.882	34.25
293.098	40.48
293.313	52.24
293.529	38.46
293.744	32.77
293.959	34.34
294.175	30.62
294.39	23.2
294.605	33.58
294.821	41.86
295.036	48.16
295.251	53.59
295.467	53.67
295.682	44.13
295.897	46.06
296.112	33.91
296.328	35.08
296.543	19.39
296.758	29.55
296.973	30.02
297.188	38.45
297.404	26.59
297.619	25.08
297.834	30.02
298.049	27.87
298.264	20.19
298.479	36.86
298.694	54.14
298.909	38.48
299.125	45.83
299.34	42.62
299.555	37.59
299.77	33.45
299.985	31.07
300.2	17.08
300.415	25.2
300.63	21.97
300.845	12.17
301.06	20.48
301.275	26.92
301.49	15.94
301.704	22.06
301.919	27.23
302.134	29.15
302.349	26.68
302.564	37.71
302.779	21.92
302.994	28.29
303.209	34.53
303.423	39.32
303.638	41.51
303.853	68.53
304.068	51.26
304.283	48.24
304.497	54.63
304.712	43.22
304.927	51.56
305.142	46.72
305.356	37.81
305.571	38.04
305.786	39.58
306	27.47
306.215	40.85
306.43	50.71
306.644	49.96
306.859	55.59
307.074	53.01
307.288	44.68
307.503	39.53
307.717	33.41
307.932	22.66
308.147	9.76
308.361	33.29
308.576	25.11
308.79	30.12
309.005	26.37
309.219	35.09
309.434	14.28
309.648	18.77
309.863	22.84
310.077	26.69
310.292	19.17
310.506	16.82
310.72	35.61
310.935	45.96
311.149	42
311.364	56.54
311.578	66.18
311.792	49.37
312.007	37.15
312.221	39.32
312.435	32.32
312.649	25.82
312.864	39.61
313.078	61.24
313.292	60.11
313.507	58.5
313.721	73.23
313.935	47.57
314.149	28.98
314.363	30.14
314.578	31.84
314.792	22.88
315.006	18.72
315.22	12.76
315.434	24.1
315.648	28.35
315.862	33.11
316.077	37.19
316.291	42.29
316.505	39.95
316.719	43.99
316.933	45.99
317.147	36.18
317.361	27.8
317.575	2.87
317.789	1.19
318.003	-3.17
318.217	16.98
318.431	21.08
318.645	42.75
318.859	49.89
319.073	52.32
319.287	44.18
319.5	34.09
319.714	28.83
319.928	35.95
320.142	34.62
320.356	29.52
320.57	39.83
320.784	35.03
320.997	28.77
321.211	35.22
321.425	42.67
321.639	41.36
321.853	50.84
322.066	57.57
322.28	41.29
322.494	37.86
322.707	40.71
322.921	26.02
323.135	23.36
323.349	23.42
323.562	22.86
323.776	17.01
323.989	28.17
324.203	23.91
324.417	30.27
324.63	27.18
324.844	33.67
325.057	34.14
325.271	38.98
325.485	34.78
325.698	29.94
325.912	24.56
326.125	6.43
326.339	15.09
326.552	19.19
326.766	30.4
326.979	41.22
327.193	47.06
327.406	44.93
327.619	35.1
327.833	33.1
328.046	30.72
328.26	28.41
328.473	23.82
328.686	24.2
328.9	12.97
329.113	7.65
329.326	8.41
329.54	9.48
329.753	18.6
329.966	34.42
330.179	38.69
330.393	49.64
330.606	52.62
330.819	58.49
331.032	58.66
331.246	49.44
331.459	53.54
331.672	46.12
331.885	37.02
332.098	27.81
332.311	27.45
332.525	9.67
332.738	16.22
332.951	22.5
333.164	25.18
333.377	18.32
333.59	25.92
333.803	23.21
334.016	24.14
334.229	32.56
334.442	43.12
334.655	30.87
334.868	42.99
335.081	37.31
335.294	36.42
335.507	29.12
335.72	38.59
335.933	31.49
336.146	33.21
336.359	31.98
336.572	33.6
336.785	13.41
336.997	8.42
337.21	5.59
337.423	6.21
337.636	4.57
337.849	22.64
338.062	22.86
338.274	32.18
338.487	34.25
338.7	28.53
338.913	23.22
339.125	26.87
339.338	12.17
339.551	4.83
339.763	12.46
339.976	24.61
340.189	16.88
340.402	29.37
340.614	31.28
340.827	28.71
341.039	18.06
341.252	25.6
341.465	25.41
341.677	27.45
341.89	30.86
342.102	31.86
342.315	40.08
342.527	40.92
342.74	36.85
342.952	43.62
343.165	41.63
343.377	33.91
343.59	26.26
343.802	29.5
344.015	21.33
344.227	28.34
344.44	33.65
344.652	40.26
344.864	39.76
345.077	38.86
345.289	37.78
345.502	28.2
345.714	12.08
345.926	7.52
346.139	17.85
346.351	19.56
346.563	27.85
346.775	43.68
346.988	39.23
347.2	24.3
347.412	25.04
347.624	27.1
347.837	23.81
348.049	23.79
348.261	25.44
348.473	27.54
348.685	29.47
348.897	24.58
349.11	23.07
349.322	32.91
349.534	35.8
349.746	30.87
349.958	39.56
350.17	48.09
350.382	46.68
350.594	35.32
350.806	36.33
351.018	29.28
351.23	25.39
351.442	23.45
351.654	23.94
351.866	13.87
352.078	16.56
352.29	3.87
352.502	7.6
352.714	12.08
352.926	15.04
353.138	21.24
353.35	27.08
353.561	26.07
353.773	31.53
353.985	25.35
354.197	5.66
354.409	-4.26
354.621	9.17
354.832	0.31
355.044	15.64
355.256	14.11
355.468	15.65
355.679	-1.9
355.891	2.68
356.103	7.48
356.314	9.7
356.526	18.05
356.738	21.76
356.949	27.43
357.161	38.56
357.373	43.77
357.584	45.08
357.796	52.96
358.008	56.58
358.219	42.88
358.431	40.28
358.642	50.42
358.854	42.84
359.065	27.91
359.277	25.13
359.488	30.44
359.7	21.01
359.911	24.33
360.123	37.49
360.334	40.11
360.546	40.46
360.757	37.64
360.969	35.54
361.18	30.65
361.391	34.8
361.603	44.96
361.814	40.92
362.025	41.42
362.237	42.12
362.448	29.98
362.659	15.75
362.871	16.32
363.082	1.68
363.293	-5.47
363.504	-3.73
363.716	-9.64
363.927	-20.84
364.138	-11.67
364.349	-8.62
364.56	-4.24
364.772	-3.92
364.983	5.18
365.194	13.44
365.405	16.54
365.616	13.78
365.827	17.59
366.038	25.33
366.25	17.14
366.461	9.73
366.672	19.19
366.883	25.72
367.094	25.6
367.305	20.78
367.516	29.59
367.727	17.48
367.938	20.48
368.149	14.02
368.36	15.94
368.571	8.89
368.781	7.88
368.992	1.75
369.203	-3.88
369.414	-9.17
369.625	7.15
369.836	11.87
370.047	12
370.258	26.78
370.468	33.81
370.679	21.36
370.89	22.78
371.101	13.8
371.312	5.85
371.522	8.92
371.733	20.73
371.944	27.57
372.155	43.99
372.365	43.47
372.576	41.08
372.787	40.5
372.997	40.53
373.208	25.23
373.419	29.58
373.629	26.1
373.84	15.69
374.05	14.24
374.261	19.66
374.472	11.19
374.682	16.28
374.893	25.71
375.103	23.95
375.314	30.36
375.524	29.8
375.735	33.03
375.945	40.29
376.156	40.77
376.366	33.94
376.577	35.4
376.787	29.39
376.997	22.24
377.208	21.27
377.418	24.95
377.629	36.3
377.839	43.28
378.049	41.41
378.26	41.99
378.47	44.33
378.68	46.34
378.89	42.52
379.101	36.97
379.311	32.33
379.521	29.75
379.732	20.33
379.942	14.65
380.152	13.01
380.362	9.56
380.572	9.13
380.783	14.57
380.993	21.7
381.203	22.98
381.413	34.28
381.623	35.58
381.833	32.84
382.043	33.92
382.253	27.08
382.463	23.12
382.674	22.49
382.884	19.33
383.094	16.59
383.304	24.6
383.514	23.75
383.724	27.63
383.934	30.71
384.144	31.46
384.353	31.72
384.563	30.28
384.773	27.53
384.983	29.61
385.193	27.35
385.403	27.6
385.613	26.55
385.823	23.99
386.033	18.98
386.242	16.96
386.452	14.46
386.662	11.98
386.872	11.97
387.082	8.99
387.291	10.56
387.501	12.07
387.711	14.46
387.921	16.17
388.13	18.77
388.34	21.61
388.55	20.82
388.759	21.57
388.969	16.78
389.179	19.28
389.388	15.99
389.598	14.18
389.807	14.96
390.017	14.62
390.227	12.8
390.436	11.82
390.646	13.15
390.855	12.1
391.065	15.42
391.274	15.59
391.484	17.1
391.693	14.45
391.903	14.28
392.112	12.71
392.322	11.25
392.531	12.29
392.74	15.91
392.95	14.85
393.159	14.07
393.369	13.47
393.578	11.44
393.787	9.7
393.997	11.46
394.206	12.08
394.415	14.41
394.625	14.71
394.834	14.77
395.043	13.2
395.252	11.77
395.462	10.28
395.671	9.9
395.88	9.51
396.089	9.51
396.298	9.99
396.508	10.79
396.717	10.75
396.926	10.67
397.135	9.93
397.344	10.24
397.553	10.16
397.762	10.03
397.971	9.99
398.181	10.47
398.39	9.97
398.599	9.09
398.808	8.77
399.017	8.74
399.226	8.87
399.435	9.4
399.644	9.37
399.853	9.91
400.062	9.76
400.27	9.7
400.479	9.25
400.688	9.71
400.897	9.53
401.106	9.47
401.315	9.63
401.524	9.78
401.733	9.7
401.941	9.86
402.15	10.05
402.359	9.82
402.568	9.88
402.777	9.55
402.985	9.48
403.194	9.27
403.403	9.16
403.612	8.83
403.82	8.6
404.029	8.27
404.238	8.32
404.446	8.36
404.655	8.41
404.864	8.43
405.072	8.53
405.281	8.48
405.489	8.46
405.698	8.38
405.906	8.42
406.115	8.36
406.324	8.19
406.532	8.08
406.741	7.87
406.949	7.98
407.158	7.98
407.366	7.91
407.574	7.93
407.783	7.99
407.991	7.84
408.2	7.96
408.408	8.12
408.617	8.04
408.825	8.08
409.033	8.16
409.242	7.96
409.45	7.89
409.658	7.75
409.867	7.7
410.075	7.57
410.283	7.59
410.491	7.46
410.7	7.42
410.908	7.49
411.116	7.54
411.324	7.46
411.533	7.45
411.741	7.58
411.949	7.49
412.157	7.35
412.365	7.4
412.573	7.6
412.781	7.45
412.99	7.44
413.198	7.42
413.406	7.34
413.614	6.99
413.822	7.05
414.03	7.12
414.238	7.24
414.446	7.13
414.654	7.1
414.862	7.07
415.07	6.94
415.278	6.75
415.486	6.72
415.694	6.72
415.902	6.68
416.109	6.6
416.317	6.78
416.525	6.84
416.733	6.91
416.941	6.88
417.149	6.93
417.357	6.9
417.564	6.7
417.772	6.7
417.98	6.6
418.188	6.6
418.395	6.47
418.603	6.59
418.811	6.63
419.019	6.84
419.226	6.76
419.434	6.79
419.642	6.74
419.849	6.56
420.057	6.44
420.265	6.36
420.472	6.15
420.68	6.29
420.887	6.26
421.095	6.23
421.302	6.26
421.51	6.43
421.717	6.16
421.925	6.05
422.132	6.06
422.34	6.09
422.547	6.04
422.755	6.17
422.962	6.23
423.17	6.19
423.377	6.08
423.585	5.95
423.792	5.86
423.999	5.86
424.207	5.89
424.414	5.98
424.621	5.99
424.829	6.01
425.036	6.02
425.243	6.05
425.451	6.16
425.658	6.2
425.865	6.33
426.072	6.36
426.28	6.25
426.487	6.08
426.694	6.09
426.901	6.09
427.108	6.12
427.315	6.09
427.523	6.16
427.73	6.24
427.937	6.2
428.144	6.23
428.351	6.42
428.558	6.55
428.765	6.59
428.972	6.53
429.179	6.42
429.386	6.47
429.593	6.42
429.8	6.39
430.007	6.4
430.214	6.53
430.421	6.47
430.628	6.34
430.835	6.34
431.042	6.46
431.249	6.38
431.456	6.35
431.662	6.49
431.869	6.58
432.076	6.63
432.283	6.63
432.49	6.62
432.697	6.59
432.903	6.51
433.11	6.39
433.317	6.44
433.524	6.53
433.73	6.54
433.937	6.59
434.144	6.67
434.35	6.84
434.557	6.9
434.764	7.02
434.97	7.08
435.177	7.22
435.384	7.11
435.59	7.01
435.797	7.1
436.003	7.08
436.21	7.05
436.416	7.21
436.623	7.34
436.829	7.29
437.036	7.38
437.242	7.34
437.449	7.19
437.655	7.3
437.862	7.27
438.068	7.25
438.275	7.28
438.481	7.42
438.687	7.27
438.894	7.35
439.1	7.43
439.307	7.6
439.513	7.68
439.719	7.8
439.926	7.82
440.132	7.9
440.338	7.97
440.544	7.98
440.751	8.01
440.957	8.14
441.163	8.14
441.369	8.1
441.575	7.93
441.782	8.07
441.988	8.08
442.194	8.05
442.4	8.03
442.606	8.16
442.812	8.12
443.018	8.07
443.224	8.14
443.431	8.2
443.637	8.28
443.843	8.3
444.049	8.4
444.255	8.38
444.461	8.4
444.667	8.36
444.873	8.48
445.079	8.44
445.284	8.53
445.49	8.61
445.696	8.68
445.902	8.65
446.108	8.77
446.314	8.65
446.52	8.61
446.726	8.61
446.931	8.61
447.137	8.53
447.343	8.74
447.549	8.76
447.755	8.85
447.96	8.81
448.166	8.85
448.372	8.73
448.578	8.77
448.783	8.72
448.989	8.81
449.195	8.73
449.4	8.82
449.606	8.84
449.812	8.89
450.017	8.86
450.223	8.88
450.428	8.81
450.634	8.76
450.84	8.74
451.045	8.8
451.251	8.88
451.456	9.01
451.662	9
451.867	8.93
452.073	8.92
452.278	8.88
452.483	8.87
452.689	9.01
452.894	9.05
453.1	9.08
453.305	9.09
453.51	9.12
453.716	8.93
453.921	8.96
454.127	8.97
454.332	9
454.537	8.91
454.742	9.01
454.948	9.07
455.153	9.03
455.358	9.11
455.563	9.2
455.769	9.35
455.974	9.38
456.179	9.38
456.384	9.28
456.589	9.29
456.795	9.14
457	9.11
457.205	9.16
457.41	9.22
457.615	9.18
457.82	9.2
458.025	9.23
458.23	9.23
458.435	9.28
458.64	9.31
458.845	9.38
459.05	9.37
459.255	9.38
459.46	9.32
459.665	9.36
459.87	9.34
460.075	9.36
460.28	9.34
460.485	9.34
460.69	9.35
460.895	9.36
461.099	9.33
461.304	9.34
461.509	9.45
461.714	9.38
461.919	9.5
462.123	9.54
462.328	9.62
462.533	9.63
462.738	9.73
462.942	9.68
463.147	9.74
463.352	9.65
463.556	9.69
463.761	9.7
463.966	9.63
464.17	9.67
464.375	9.74
464.58	9.76
464.784	9.82
464.989	9.96
465.193	9.93
465.398	9.92
465.602	9.96
465.807	9.96
466.011	9.94
466.216	10.04
466.42	10.05
466.625	10
466.829	10.06
467.034	10.09
467.238	10.15
467.443	10.22
467.647	10.28
467.851	10.35
