Data from Ofra_PS_Phys_OCX4_Reflection_1.txt Node
Date: Tue Jul 20 17:53:24 EDT 2021
User: USUARIO
Spectrometer: FLMT01687
Trigger mode: 0
Integration Time (sec): 1.042999E0
Scans to average: 2
Electric dark correction enabled: true
Nonlinearity correction enabled: false
Boxcar width: 2
XAxis mode: Wavelengths
Number of Pixels in Spectrum: 3648
>>>>>Begin Spectral Data<<<<<
179.494	-219.35
179.716	-380.92
179.937	-261.63
180.158	-930.43
180.38	-301.02
180.601	-80.58
180.823	-80
181.044	-237.11
181.265	-604.65
181.486	54.53
181.708	89.18
181.929	159.08
182.15	160.16
182.372	-453.52
182.593	12.85
182.814	3.3
183.035	31.32
183.257	44.7
183.478	25.44
183.699	15.8
183.92	32.85
184.141	15.59
184.363	3.05
184.584	16.16
184.805	17.94
185.026	33.63
185.247	49.06
185.468	42.59
185.689	18.28
185.91	29.82
186.132	2.91
186.353	-9.78
186.574	13.72
186.795	-5.24
187.016	-7.77
187.237	-6.87
187.458	-45.57
187.679	-90.97
187.9	-55.12
188.121	-176.86
188.342	-655.7
188.563	-138.3
188.784	-48.63
189.005	-11.41
189.226	15.3
189.447	41.7
189.667	22.7
189.888	38.53
190.109	42.93
190.33	35.47
190.551	77.28
190.772	49
190.993	41.05
191.214	37.76
191.434	31.8
191.655	-11.57
191.876	-11.84
192.097	-52.45
192.318	-34.05
192.538	-22.64
192.759	61.22
192.98	69.65
193.201	81.71
193.421	54.04
193.642	39.88
193.863	22.77
194.083	24.26
194.304	37.45
194.525	41.17
194.745	56.58
194.966	41.73
195.187	13.26
195.407	-12.18
195.628	0.7
195.848	-39.39
196.069	-17.32
196.29	-0.1
196.51	-4.14
196.731	-38.92
196.951	-9.14
197.172	-38.2
197.392	-26.89
197.613	-15.87
197.833	2.22
198.054	-9.27
198.274	16.6
198.495	9.29
198.715	19.22
198.936	19.25
199.156	24.69
199.377	25.43
199.597	35.59
199.817	30.53
200.038	26.18
200.258	21.51
200.479	1.04
200.699	-21.76
200.919	-22.98
201.14	17.34
201.36	25.15
201.58	12.24
201.801	7.16
202.021	9.75
202.241	-66.43
202.461	-174.65
202.682	-72.53
202.902	-58.12
203.122	-34.2
203.342	-11.73
203.563	-17.12
203.783	1.13
204.003	0.23
204.223	-22.52
204.443	-59.08
204.663	-64.34
204.884	-27.07
205.104	-27.94
205.324	-24
205.544	-22.21
205.764	10.33
205.984	-39.29
206.204	-11.31
206.424	-1.99
206.644	3.15
206.864	-15.34
207.084	1.33
207.304	-4.75
207.525	-17.15
207.745	-18.04
207.964	-28.3
208.184	2.14
208.404	13.5
208.624	15.73
208.844	32.52
209.064	36.52
209.284	26.54
209.504	25
209.724	36.79
209.944	35.39
210.164	16.48
210.384	31.55
210.604	57.52
210.823	43.78
211.043	3.28
211.263	35.38
211.483	25.06
211.703	4.69
211.922	-1.61
212.142	20.89
212.362	-2.97
212.582	-18.9
212.801	-16.17
213.021	-21.86
213.241	-80.5
213.461	9.56
213.68	18.62
213.9	-31.94
214.12	-30.47
214.339	-60.29
214.559	-61.38
214.779	-43.63
214.998	-21.97
215.218	-12.07
215.438	3.51
215.657	2.57
215.877	-2.94
216.096	25.88
216.316	15.46
216.535	15.06
216.755	17.93
216.974	17.11
217.194	7.08
217.413	16.47
217.633	7.72
217.852	-12.85
218.072	-10.17
218.291	-17.7
218.511	-12.98
218.73	-34.17
218.95	-40.07
219.169	-37.39
219.389	-22.15
219.608	-47.06
219.827	2.68
220.047	40.85
220.266	44.57
220.485	13.4
220.705	12.57
220.924	-1.7
221.143	-23.51
221.363	-28.74
221.582	1.62
221.801	38.16
222.021	34.82
222.24	42.73
222.459	17.34
222.678	-12.65
222.897	1.21
223.117	13.52
223.336	20.97
223.555	26.93
223.774	33.07
223.993	15.33
224.213	-0.09
224.432	-22.39
224.651	-22.25
224.87	-13.42
225.089	-29.91
225.308	-10.92
225.527	-6.76
225.746	-23.78
225.965	-22.08
226.184	14.09
226.404	-11.26
226.623	-10.12
226.842	-13.42
227.061	-2.95
227.28	-37.99
227.499	-24.14
227.718	-29.59
227.936	-26.24
228.155	-25.33
228.374	-28.09
228.593	-22.43
228.812	-5.14
229.031	2.75
229.25	-6.91
229.469	19.36
229.688	19.58
229.907	1.98
230.125	10.51
230.344	9.25
230.563	-22.72
230.782	-3.14
231.001	0.27
231.22	-5.09
231.438	10.17
231.657	28.72
231.876	18.68
232.095	11.6
232.313	19.26
232.532	17.89
232.751	17.89
232.969	18.24
233.188	33.57
233.407	32.98
233.625	14.7
233.844	26.3
234.063	26.65
234.281	33.96
234.5	19.79
234.719	24.53
234.937	18.61
235.156	10.11
235.374	-19.09
235.593	-13.91
235.811	-21.42
236.03	-68.12
236.249	-128.35
236.467	-50.57
236.686	-36.22
236.904	-33.96
237.123	-3.95
237.341	4.92
237.559	-8.43
237.778	-4.44
237.996	5.53
238.215	-14.3
238.433	-5.48
238.652	5.17
238.87	-1.2
239.088	1.55
239.307	13.17
239.525	5.19
239.743	-4.64
239.962	5.95
240.18	-5.78
240.398	-0.47
240.617	8.69
240.835	4
241.053	-11.89
241.271	-6.06
241.49	-9.97
241.708	-19.14
241.926	-9.41
242.144	4.19
242.363	-8.61
242.581	-12.55
242.799	-5.67
243.017	10.79
243.235	-1.91
243.453	20.03
243.672	33.23
243.89	24.71
244.108	18.65
244.326	27.36
244.544	-2.08
244.762	-19.21
244.98	5.27
245.198	3.07
245.416	13.13
245.634	23.01
245.852	30.64
246.07	28.15
246.288	24.29
246.506	12.99
246.724	49.44
246.942	51.75
247.16	55.04
247.378	64.32
247.596	75.45
247.814	42.03
248.032	31.22
248.25	10.72
248.468	2.03
248.685	21.96
248.903	34.51
249.121	53.24
249.339	74.06
249.557	76.43
249.775	64.77
249.992	59.83
250.21	28.93
250.428	2.76
250.646	-24.04
250.863	-3.45
251.081	-10.13
251.299	-22.73
251.517	-17.01
251.734	-20.67
251.952	-62.06
252.17	-28.84
252.387	-11.99
252.605	-35.86
252.823	3.53
253.04	17.95
253.258	6.25
253.475	3.97
253.693	37.93
253.911	32.7
254.128	25.11
254.346	38.73
254.563	43.52
254.781	18.72
254.998	-3.49
255.216	-2.09
255.433	-24.01
255.651	-19.38
255.868	-24.47
256.086	2.77
256.303	-10.25
256.521	13.03
256.738	3.64
256.956	25.15
257.173	2.53
257.39	-0.68
257.608	-28.46
257.825	25.31
258.043	19.27
258.26	47.51
258.477	53.59
258.695	53.18
258.912	25.15
259.129	28.14
259.346	16.78
259.564	12.14
259.781	5.81
259.998	10.15
260.216	13.58
260.433	0.84
260.65	18.14
260.867	17.55
261.084	31.31
261.302	17.22
261.519	45.55
261.736	40.39
261.953	60.97
262.17	40.12
262.387	30.02
262.604	-16.78
262.822	-56.66
263.039	-98.95
263.256	-82.58
263.473	-90.85
263.69	-50.62
263.907	-18.17
264.124	-25.03
264.341	22.49
264.558	39.28
264.775	50.58
264.992	55.8
265.209	44.09
265.426	2.54
265.643	-0.75
265.86	-20.16
266.077	-7.51
266.294	-3.59
266.51	8.03
266.727	7.28
266.944	23.13
267.161	-4.01
267.378	-3.91
267.595	13.49
267.812	3.95
268.028	4.9
268.245	13.18
268.462	1.83
268.679	-29.73
268.896	-11.96
269.112	-10.28
269.329	-24.34
269.546	-31.95
269.763	-7.19
269.979	-1.69
270.196	-0.32
270.413	21.3
270.629	23.3
270.846	20.55
271.063	-4.66
271.279	-8.23
271.496	-17.8
271.712	-33.11
271.929	-45.31
272.146	-0.73
272.362	-16.91
272.579	-24.67
272.795	-34.04
273.012	8.94
273.228	-0.08
273.445	1.9
273.661	18.48
273.878	26.13
274.094	-1.11
274.311	2.07
274.527	10.77
274.744	-12.36
274.96	-8.85
275.177	-10.32
275.393	-6.14
275.609	-7.14
275.826	18.18
276.042	10.25
276.259	9.35
276.475	13.44
276.691	17.91
276.908	-8.14
277.124	9.62
277.34	1.69
277.557	-11.63
277.773	-17.98
277.989	-14.45
278.205	-34.41
278.422	-25.49
278.638	-6.22
278.854	-6.61
279.07	-3.61
279.286	3.53
279.503	4.24
279.719	-8.36
279.935	-9.02
280.151	13.28
280.367	17.68
280.583	15.8
280.799	38.51
281.016	32.89
281.232	17.5
281.448	21.58
281.664	32.49
281.88	18.39
282.096	15.37
282.312	31.16
282.528	32.15
282.744	15.3
282.96	17.7
283.176	31.58
283.392	22.08
283.608	17.25
283.824	27.6
284.04	26.37
284.256	13.72
284.471	27.51
284.687	33.75
284.903	21.1
285.119	24.71
285.335	-16.69
285.551	5.83
285.767	-10.59
285.982	-2.96
286.198	13.71
286.414	39.05
286.63	31.66
286.846	30.85
287.061	32.98
287.277	29.93
287.493	34.13
287.709	47.13
287.924	54.36
288.14	52.35
288.356	47.9
288.571	45.52
288.787	18.3
289.003	-8.77
289.218	8.37
289.434	14.81
289.65	8.77
289.865	16.39
290.081	37.85
290.296	23.2
290.512	3.41
290.727	-2.65
290.943	-13.02
291.159	-6.5
291.374	-35.5
291.59	-2.58
291.805	-17.27
292.021	-25.74
292.236	-3.6
292.451	8.09
292.667	3.7
292.882	26.33
293.098	40.05
293.313	10.3
293.529	14.43
293.744	-6.22
293.959	-17.09
294.175	-30.1
294.39	-48.18
294.605	-44.14
294.821	-36.58
295.036	-30.48
295.251	-14.03
295.467	13.52
295.682	8.76
295.897	13.75
296.112	20.07
296.328	15.79
296.543	8.07
296.758	18.84
296.973	8.34
297.188	15.21
297.404	16.38
297.619	13.07
297.834	-24.64
298.049	11.33
298.264	-8.71
298.479	-15.34
298.694	-21.8
298.909	-25.1
299.125	-20.99
299.34	-29.44
299.555	5.63
299.77	-0.92
299.985	14.05
300.2	-2.9
300.415	-12.39
300.63	-41.77
300.845	-1.69
301.06	-2.06
301.275	1.19
301.49	-4.3
301.704	2.74
301.919	-31.89
302.134	-42.29
302.349	-32.95
302.564	-31.55
302.779	-18.66
302.994	12.86
303.209	22.71
303.423	18.49
303.638	19.11
303.853	15.14
304.068	-2.35
304.283	-18.21
304.497	-11.36
304.712	-1.24
304.927	-3.2
305.142	-8.51
305.356	4.46
305.571	5.89
305.786	-8.52
306	-6.88
306.215	9.83
306.43	-1.05
306.644	-3.71
306.859	12.51
307.074	15.53
307.288	10.06
307.503	6.57
307.717	14
307.932	3.57
308.147	3.24
308.361	-4.79
308.576	-4.49
308.79	-12.77
309.005	1.31
309.219	-4.75
309.434	2.67
309.648	6.39
309.863	-2.57
310.077	1.99
310.292	-6.84
310.506	-6.53
310.72	2.05
310.935	-12.05
311.149	-14.57
311.364	5.58
311.578	17.58
311.792	21.6
312.007	37.63
312.221	34.5
312.435	25.83
312.649	-8.2
312.864	-10.23
313.078	1.41
313.292	10.92
313.507	10.76
313.721	25.86
313.935	38.39
314.149	18.51
314.363	13.84
314.578	27.31
314.792	14.14
315.006	-3.83
315.22	19.78
315.434	20.25
315.648	-10.49
315.862	-18.09
316.077	-27.77
316.291	-56.38
316.505	-38.21
316.719	-20
316.933	-1.98
317.147	3.55
317.361	9.31
317.575	27.36
317.789	33.88
318.003	32.2
318.217	35.05
318.431	39.1
318.645	25.59
318.859	28.67
319.073	35.15
319.287	32.02
319.5	32.87
319.714	33.55
319.928	36.43
320.142	32.06
320.356	49.27
320.57	34.2
320.784	27.01
320.997	4.81
321.211	16.09
321.425	4.74
321.639	13.14
321.853	22.33
322.066	33.9
322.28	31.66
322.494	27
322.707	21.63
322.921	14.81
323.135	21.64
323.349	8.71
323.562	0.28
323.776	7.44
323.989	13.92
324.203	7.95
324.417	0.62
324.63	1.69
324.844	2.27
325.057	12.49
325.271	7.62
325.485	14.58
325.698	13.5
325.912	19.94
326.125	2.65
326.339	-4.38
326.552	4.45
326.766	9.62
326.979	11
327.193	18.73
327.406	21.06
327.619	19.24
327.833	36.54
328.046	10.51
328.26	-3.42
328.473	-2.41
328.686	-1.75
328.9	-34.64
329.113	-4.25
329.326	21.51
329.54	33.46
329.753	30.96
329.966	46.56
330.179	47.95
330.393	44.98
330.606	13.19
330.819	4.91
331.032	2.66
331.246	-1.23
331.459	-27.42
331.672	6.23
331.885	4.45
332.098	-2.99
332.311	-9.64
332.525	-9.84
332.738	-35.85
332.951	-12.91
333.164	6.64
333.377	0.28
333.59	19.16
333.803	29.76
334.016	28.02
334.229	23.38
334.442	19.01
334.655	23.63
334.868	35.85
335.081	28.48
335.294	28.88
335.507	42.15
335.72	26.87
335.933	-4.77
336.146	3.71
336.359	-4.39
336.572	-39.02
336.785	-26.63
336.997	-23.44
337.21	-24.08
337.423	-21.67
337.636	-0.89
337.849	-2.61
338.062	1.3
338.274	15.39
338.487	-5.18
338.7	-19.71
338.913	-41.5
339.125	-27.44
339.338	-52.5
339.551	-16.25
339.763	-6.39
339.976	11.68
340.189	14.54
340.402	24.58
340.614	14.85
340.827	23.64
341.039	11.49
341.252	7.26
341.465	-2.84
341.677	8.49
341.89	-13.6
342.102	12.33
342.315	15.3
342.527	19.95
342.74	32.02
342.952	51.24
343.165	48.87
343.377	52.28
343.59	42.58
343.802	38.94
344.015	20.09
344.227	10.96
344.44	-2.25
344.652	5.64
344.864	-6.48
345.077	8.27
345.289	1.37
345.502	-0.46
345.714	-0.66
345.926	3.71
346.139	-19.14
346.351	-7.1
346.563	-3.16
346.775	-7.24
346.988	-19.71
347.2	-15.69
347.412	-14.93
347.624	-12.87
347.837	-3.8
348.049	-0.2
348.261	12.51
348.473	17.68
348.685	21.17
348.897	14.7
349.11	14.49
349.322	2.04
349.534	13.88
349.746	24.48
349.958	25.69
350.17	22.04
350.382	31.4
350.594	15.97
350.806	9.18
351.018	8.76
351.23	14.83
351.442	16.03
351.654	17.81
351.866	11.99
352.078	10.04
352.29	4.8
352.502	4.22
352.714	8.72
352.926	-12.9
353.138	-17.75
353.35	-19.89
353.561	-33.14
353.773	-25.13
353.985	0.1
354.197	-12.48
354.409	7
354.621	12.05
354.832	-15.29
355.044	-26.67
355.256	-4.91
355.468	-20.85
355.679	-19.25
355.891	19.06
356.103	35.62
356.314	24.6
356.526	31.15
356.738	22.22
356.949	17.26
357.161	25.39
357.373	24.96
357.584	9.17
357.796	18.2
358.008	-2.33
358.219	-4.19
358.431	-10.34
358.642	6.11
358.854	2.66
359.065	7.89
359.277	-6.48
359.488	3.58
359.7	-5.58
359.911	-1.23
360.123	6.18
360.334	10.15
360.546	7.73
360.757	5.32
360.969	5.64
361.18	4.59
361.391	22.12
361.603	19.34
361.814	24.24
362.025	17.5
362.237	11.84
362.448	4.37
362.659	-5.56
362.871	-9.56
363.082	-13.3
363.293	1.63
363.504	-2.8
363.716	0.08
363.927	-8.63
364.138	-5.83
364.349	-43.57
364.56	-39.12
364.772	-13.71
364.983	-15.34
365.194	-8.82
365.405	-5.51
365.616	-11.58
365.827	-7.34
366.038	-0.36
366.25	4.31
366.461	10.31
366.672	24.6
366.883	22.32
367.094	25.31
367.305	11.62
367.516	14.29
367.727	3.68
367.938	-1.97
368.149	-6.39
368.36	-6.14
368.571	3.94
368.781	9.86
368.992	12.96
369.203	30.8
369.414	24.59
369.625	24.96
369.836	13.8
370.047	10.97
370.258	-7.74
370.468	2.77
370.679	1.15
370.89	12.21
371.101	25.74
371.312	28.29
371.522	30.41
371.733	26.05
371.944	24.38
372.155	25.55
372.365	16.28
372.576	13.37
372.787	5.73
372.997	4.53
373.208	-2.26
373.419	13.94
373.629	-0.48
373.84	9.92
374.05	3.14
374.261	7.97
374.472	-2.67
374.682	24.26
374.893	26.07
375.103	26.79
375.314	18.23
375.524	17.39
375.735	2.91
375.945	-5.8
376.156	-4.39
376.366	-8.73
376.577	12.3
376.787	11.31
376.997	15.45
377.208	24.85
377.418	36.28
377.629	15.72
377.839	20.74
378.049	22.22
378.26	14.05
378.47	9.71
378.68	12.6
378.89	5.91
379.101	11.53
379.311	-7.07
379.521	-11.04
379.732	-1.13
379.942	9
380.152	6.42
380.362	24.42
380.572	26.26
380.783	24.49
380.993	20.39
381.203	16.26
381.413	8.17
381.623	-0.85
381.833	-18.49
382.043	-35.05
382.253	-44.58
382.463	-25.29
382.674	-25.47
382.884	-15.9
383.094	2.88
383.304	4.67
383.514	-4.11
383.724	3.98
383.934	3.26
384.144	-8.28
384.353	-5.17
384.563	-0.32
384.773	-6.33
384.983	-5.1
385.193	0.07
385.403	-1.31
385.613	10.18
385.823	13.14
386.033	4.43
386.242	4.1
386.452	3.55
386.662	-6.55
386.872	-7.32
387.082	-0.55
387.291	-1.3
387.501	0.85
387.711	4.37
387.921	2.54
388.13	3.23
388.34	9.15
388.55	7.79
388.759	6.64
388.969	10.26
389.179	9.15
389.388	5.46
389.598	6.69
389.807	6
390.017	4.63
390.227	3.26
390.436	1.6
390.646	-0.65
390.855	0.77
391.065	0.3
391.274	1.3
391.484	4.99
391.693	7.04
391.903	8.02
392.112	7.81
392.322	6.4
392.531	5.21
392.74	4.36
392.95	-0.15
393.159	0.13
393.369	0.17
393.578	-1.5
393.787	-3.88
393.997	-0.76
394.206	-0.94
394.415	1.16
394.625	2.9
394.834	4.79
395.043	5.63
395.252	6.39
395.462	5.16
395.671	4.98
395.88	4.63
396.089	3.69
396.298	2.96
396.508	3.47
396.717	3.72
396.926	4.62
397.135	3.9
397.344	3.27
397.553	3.07
397.762	2.18
397.971	1.36
398.181	1.66
398.39	2.15
398.599	2.21
398.808	2.41
399.017	2.88
399.226	3.59
399.435	3.58
399.644	3.36
399.853	3.32
400.062	3.08
400.27	2.69
400.479	2.64
400.688	2.96
400.897	3.32
401.106	3.67
401.315	3.46
401.524	3.8
401.733	3.9
401.941	3.65
402.15	3.26
402.359	3.26
402.568	3
402.777	3.04
402.985	2.67
403.194	2.59
403.403	2.71
403.612	2.73
403.82	2.41
404.029	2.99
404.238	3.27
404.446	3.31
404.655	3.44
404.864	3.47
405.072	3.05
405.281	3.06
405.489	3.21
405.698	3.32
405.906	3.44
406.115	3.74
406.324	3.51
406.532	3.13
406.741	2.97
406.949	3.02
407.158	3.01
407.366	3.08
407.574	3.16
407.783	3.18
407.991	2.94
408.2	2.88
408.408	2.8
408.617	2.9
408.825	2.82
409.033	2.98
409.242	3.01
409.45	3.09
409.658	2.97
409.867	3.01
410.075	3
410.283	2.79
410.491	2.71
410.7	2.75
410.908	2.9
411.116	2.83
411.324	2.95
411.533	3.03
411.741	3.04
411.949	2.89
412.157	2.89
412.365	2.81
412.573	2.88
412.781	2.94
412.99	2.87
413.198	2.9
413.406	3.04
413.614	3.01
413.822	3
414.03	3.03
414.238	2.9
414.446	2.88
414.654	2.86
414.862	2.9
415.07	2.78
415.278	2.94
415.486	2.79
415.694	2.81
415.902	2.8
416.109	2.82
416.317	2.86
416.525	2.9
416.733	2.74
416.941	2.85
417.149	2.95
417.357	2.78
417.564	2.8
417.772	2.85
417.98	2.6
418.188	2.6
418.395	2.68
418.603	2.7
418.811	2.72
419.019	2.6
419.226	2.68
419.434	2.67
419.642	2.57
419.849	2.5
420.057	2.6
420.265	2.42
420.472	2.35
420.68	2.31
420.887	2.28
421.095	2.38
421.302	2.46
421.51	2.35
421.717	2.42
421.925	2.38
422.132	2.21
422.34	2.12
422.547	2.29
422.755	2.28
422.962	2.32
423.17	2.46
423.377	2.5
423.585	2.48
423.792	2.35
423.999	2.37
424.207	2.18
424.414	2.07
424.621	2.06
424.829	2.13
425.036	2.08
425.243	2.1
425.451	2.09
425.658	2
425.865	2.13
426.072	2.03
426.28	2.21
426.487	2.21
426.694	2.09
426.901	2.11
427.108	2.25
427.315	2.25
427.523	2.3
427.73	2.54
427.937	2.36
428.144	2.36
428.351	2.26
428.558	2.31
428.765	2.12
428.972	2.33
429.179	2.19
429.386	2.33
429.593	2.23
429.8	2.2
430.007	2.05
430.214	2.21
430.421	1.94
430.628	2.15
430.835	2.26
431.042	2.33
431.249	2.3
431.456	2.43
431.662	2.54
431.869	2.61
432.076	2.62
432.283	2.56
432.49	2.71
432.697	2.47
432.903	2.39
433.11	2.35
433.317	2.4
433.524	2.19
433.73	2.09
433.937	2.17
434.144	2.1
434.35	2.09
434.557	2.07
434.764	2.18
434.97	2.08
435.177	2.19
435.384	2.21
435.59	2.32
435.797	2.44
436.003	2.55
436.21	2.5
436.416	2.45
436.623	2.42
436.829	2.3
437.036	2.31
437.242	2.36
437.449	2.34
437.655	2.44
437.862	2.51
438.068	2.41
438.275	2.44
438.481	2.49
438.687	2.34
438.894	2.4
439.1	2.55
439.307	2.55
439.513	2.58
439.719	2.66
439.926	2.59
440.132	2.64
440.338	2.64
440.544	2.6
440.751	2.67
440.957	2.49
441.163	2.33
441.369	2.4
441.575	2.48
441.782	2.44
441.988	2.62
442.194	2.71
442.4	2.64
442.606	2.54
442.812	2.58
443.018	2.66
443.224	2.66
443.431	2.73
443.637	2.91
443.843	2.89
444.049	2.79
444.255	2.71
444.461	2.73
444.667	2.68
444.873	2.64
445.079	2.68
445.284	2.74
445.49	2.67
445.696	2.58
445.902	2.61
446.108	2.52
446.314	2.46
446.52	2.47
446.726	2.65
446.931	2.66
447.137	2.72
447.343	2.79
447.549	2.91
447.755	2.79
447.96	2.8
448.166	2.91
448.372	3.01
448.578	2.94
448.783	3.03
448.989	3.01
449.195	2.94
449.4	2.91
449.606	2.89
449.812	2.86
450.017	2.88
450.223	2.87
450.428	2.82
450.634	2.78
450.84	2.79
451.045	2.86
451.251	2.87
451.456	2.98
451.662	3.02
451.867	3.05
452.073	3
452.278	2.93
452.483	2.93
452.689	2.93
452.894	2.86
453.1	2.79
453.305	2.89
453.51	2.74
453.716	2.7
453.921	2.67
454.127	2.72
454.332	2.67
454.537	2.74
454.742	2.76
454.948	2.76
455.153	2.73
455.358	2.74
455.563	2.82
455.769	2.85
455.974	2.91
456.179	2.97
456.384	2.96
456.589	2.79
456.795	2.78
457	2.76
457.205	2.63
457.41	2.63
457.615	2.79
457.82	2.81
458.025	2.82
458.23	2.88
458.435	2.85
458.64	2.78
458.845	2.83
459.05	2.82
459.255	2.89
459.46	2.92
459.665	2.86
459.87	2.81
460.075	2.84
460.28	2.82
460.485	2.94
460.69	3.04
460.895	3.03
461.099	3.03
461.304	3.03
461.509	2.99
461.714	3
461.919	3.04
462.123	3.02
462.328	3.03
462.533	3.09
462.738	3.04
462.942	2.93
463.147	2.86
463.352	2.97
463.556	2.97
463.761	3
463.966	3.09
464.17	3.19
464.375	3.06
464.58	2.95
464.784	2.95
464.989	2.96
465.193	2.95
465.398	3.02
465.602	3.14
465.807	3.02
466.011	3.05
466.216	3.06
466.42	3
466.625	3
466.829	3.15
467.034	3.13
467.238	3.11
467.443	3.13
467.647	3.02
