Data from Ofra_PS_Phys_2GT31_Reflection_2.txt Node
Date: Tue Jul 20 14:42:37 EDT 2021
User: USUARIO
Spectrometer: FLMT01687
Trigger mode: 0
Integration Time (sec): 1.200000E0
Scans to average: 2
Electric dark correction enabled: true
Nonlinearity correction enabled: false
Boxcar width: 2
XAxis mode: Wavelengths
Number of Pixels in Spectrum: 3648
>>>>>Begin Spectral Data<<<<<
179.494	-85.29
179.716	-439.39
179.937	869.74
180.158	122.25
180.38	101.54
180.601	77.89
180.823	460.91
181.044	247.75
181.265	-249.85
181.486	-24.52
181.708	361.05
181.929	116.38
182.15	132.3
182.372	-396.75
182.593	116.57
182.814	-4533.33
183.035	-244.28
183.257	43.35
183.478	44.81
183.699	39
183.92	13.2
184.141	38.27
184.363	33.4
184.584	30.91
184.805	27.1
185.026	42.77
185.247	34.17
185.468	33.79
185.689	43.84
185.91	52.42
186.132	48.97
186.353	55.53
186.574	43.7
186.795	31.57
187.016	31.35
187.237	32.19
187.458	34.74
187.679	37.38
187.9	42.5
188.121	21.51
188.342	14.05
188.563	6.93
188.784	1.95
189.005	7.31
189.226	23.83
189.447	22.58
189.667	25.95
189.888	29.95
190.109	22.88
190.33	37.66
190.551	41.92
190.772	30.48
190.993	26.47
191.214	42.35
191.434	30.73
191.655	37.61
191.876	38.09
192.097	45.46
192.318	40.4
192.538	32.34
192.759	15.97
192.98	29.11
193.201	38.38
193.421	32.37
193.642	44.67
193.863	41.72
194.083	40.78
194.304	35.01
194.525	22.81
194.745	33.2
194.966	27.63
195.187	18.65
195.407	20.14
195.628	33.15
195.848	12.91
196.069	22.5
196.29	32.65
196.51	41.52
196.731	34.27
196.951	26.42
197.172	18.57
197.392	16.92
197.613	1.64
197.833	12.83
198.054	29.13
198.274	40.47
198.495	46.68
198.715	61.32
198.936	38.5
199.156	54.43
199.377	-12.79
199.597	-37.33
199.817	-7.2
200.038	21.7
200.258	13.62
200.479	45.82
200.699	55.6
200.919	67.97
201.14	83.89
201.36	72.35
201.58	58.38
201.801	47.34
202.021	29.95
202.241	34.71
202.461	40.13
202.682	60.79
202.902	64.46
203.122	55.12
203.342	45.99
203.563	33.18
203.783	25.2
204.003	21.84
204.223	37.78
204.443	33.44
204.663	41.97
204.884	40.26
205.104	32.64
205.324	34.39
205.544	27.93
205.764	38.8
205.984	43.13
206.204	38.48
206.424	33.38
206.644	30.2
206.864	8.09
207.084	10.72
207.304	21.7
207.525	22.26
207.745	40.04
207.964	49.05
208.184	45.67
208.404	35.37
208.624	41.52
208.844	34.4
209.064	34.19
209.284	30.7
209.504	39.11
209.724	28.57
209.944	33.45
210.164	30.63
210.384	41.77
210.604	57.31
210.823	52.68
211.043	68.48
211.263	60.81
211.483	60.4
211.703	39.09
211.922	40.48
212.142	24.01
212.362	24.47
212.582	20.24
212.801	42.9
213.021	46.01
213.241	45.05
213.461	41.68
213.68	50.89
213.9	60.58
214.12	66.06
214.339	73.49
214.559	62.57
214.779	58.47
214.998	36.86
215.218	26.14
215.438	23.64
215.657	36.03
215.877	39.41
216.096	49.22
216.316	52.6
216.535	50.23
216.755	51.78
216.974	51.31
217.194	54.08
217.413	49
217.633	41.07
217.852	52.7
218.072	47.71
218.291	46.07
218.511	45.26
218.73	42.14
218.95	42.26
219.169	28.52
219.389	11.91
219.608	12.61
219.827	16.53
220.047	8.07
220.266	24.18
220.485	33.32
220.705	42.33
220.924	47.86
221.143	49.86
221.363	45.31
221.582	51.94
221.801	43.72
222.021	43.44
222.24	31.84
222.459	26.5
222.678	19.33
222.897	24.59
223.117	10.17
223.336	23.36
223.555	27.68
223.774	29.13
223.993	15.97
224.213	22.64
224.432	9.59
224.651	21.46
224.87	22.14
225.089	31.89
225.308	57.72
225.527	56.82
225.746	60.54
225.965	53.47
226.184	52.02
226.404	26.56
226.623	31.92
226.842	25.22
227.061	20.31
227.28	28.8
227.499	34.34
227.718	35.49
227.936	58.94
228.155	73.02
228.374	62.7
228.593	70.29
228.812	69.15
229.031	56.11
229.25	48.66
229.469	47.97
229.688	30.18
229.907	32.23
230.125	29.38
230.344	13.61
230.563	11.21
230.782	-0.7
231.001	-11.6
231.22	21.5
231.438	47.41
231.657	53.08
231.876	90.93
232.095	75.8
232.313	59.61
232.532	54.88
232.751	54.71
232.969	42.95
233.188	41.12
233.407	33.84
233.625	23.23
233.844	32.59
234.063	34.06
234.281	33.63
234.5	24.73
234.719	23.18
234.937	9.68
235.156	21.73
235.374	25.31
235.593	31.81
235.811	42.81
236.03	47.24
236.249	35.41
236.467	34.35
236.686	37.3
236.904	27.83
237.123	16.33
237.341	15.18
237.559	28.9
237.778	41.31
237.996	37.75
238.215	63.8
238.433	56.77
238.652	43.22
238.87	28.06
239.088	27.24
239.307	7.03
239.525	-15.86
239.743	11.48
239.962	9.89
240.18	20.22
240.398	20.01
240.617	30.63
240.835	23.7
241.053	30.4
241.271	33.96
241.49	39.14
241.708	49.62
241.926	54.64
242.144	54.01
242.363	53.51
242.581	44.92
242.799	35.05
243.017	33.62
243.235	35.59
243.453	43.44
243.672	40.12
243.89	30.42
244.108	33.02
244.326	21.29
244.544	6.65
244.762	11.68
244.98	4.57
245.198	9.8
245.416	12.52
245.634	24.41
245.852	35.04
246.07	47.91
246.288	42.37
246.506	42.76
246.724	33
246.942	18.31
247.16	26.8
247.378	35.3
247.596	38.92
247.814	38.81
248.032	55.38
248.25	48.72
248.468	33.86
248.685	27.45
248.903	27.64
249.121	31.33
249.339	22.04
249.557	30.27
249.775	34.14
249.992	27.17
250.21	22.66
250.428	20.22
250.646	20.86
250.863	21.73
251.081	29.11
251.299	20.97
251.517	25.55
251.734	18.75
251.952	1.78
252.17	0.32
252.387	2.97
252.605	9.25
252.823	2.82
253.04	16.76
253.258	28.37
253.475	34.6
253.693	31.03
253.911	39.11
254.128	35.33
254.346	30.29
254.563	25.64
254.781	34.29
254.998	32.6
255.216	24.08
255.433	24.76
255.651	31.51
255.868	32.5
256.086	38.6
256.303	44.19
256.521	48.82
256.738	52.12
256.956	39.67
257.173	34.89
257.39	34.97
257.608	13.89
257.825	-0.28
258.043	23.93
258.26	23.64
258.477	23.84
258.695	31.6
258.912	50.76
259.129	33.92
259.346	24.32
259.564	21
259.781	24.39
259.998	23.75
260.216	16.87
260.433	30.42
260.65	37.87
260.867	44.72
261.084	38.46
261.302	48.78
261.519	46.18
261.736	27.19
261.953	17.88
262.17	23.86
262.387	23.84
262.604	19.67
262.822	32.62
263.039	30.34
263.256	21.11
263.473	18.68
263.69	22.49
263.907	7.88
264.124	2.7
264.341	2.65
264.558	-4.17
264.775	-15.71
264.992	-5.88
265.209	-4.8
265.426	13.04
265.643	28.59
265.86	35.01
266.077	35.26
266.294	33.66
266.51	30.21
266.727	31.48
266.944	24.66
267.161	36.14
267.378	42.78
267.595	42.67
267.812	33.79
268.028	44.63
268.245	39.41
268.462	25.2
268.679	22.56
268.896	22.79
269.112	28.29
269.329	19.45
269.546	27.8
269.763	25.72
269.979	27.31
270.196	27.42
270.413	20.16
270.629	12.83
270.846	14.21
271.063	13.53
271.279	13.3
271.496	20.1
271.712	40.79
271.929	41.42
272.146	44.09
272.362	51.19
272.579	46.97
272.795	20.38
273.012	14.8
273.228	14.54
273.445	9.86
273.661	26.19
273.878	34.95
274.094	38.29
274.311	34.79
274.527	26.77
274.744	16.88
274.96	12.88
275.177	11.39
275.393	-11.57
275.609	5.2
275.826	2.05
276.042	10.08
276.259	5.43
276.475	21.13
276.691	7.64
276.908	13.33
277.124	27.79
277.34	28.64
277.557	32.84
277.773	42.96
277.989	45.34
278.205	31.71
278.422	23.53
278.638	16.91
278.854	21.29
279.07	18.99
279.286	16.02
279.503	31.46
279.719	38.04
279.935	33.67
280.151	31.4
280.367	40.31
280.583	37.08
280.799	35.68
281.016	40.06
281.232	47.16
281.448	43.06
281.664	46.8
281.88	38.92
282.096	31.84
282.312	25.1
282.528	19.05
282.744	26.04
282.96	30.84
283.176	38.36
283.392	35.69
283.608	34.04
283.824	24.6
284.04	25.81
284.256	20.58
284.471	18.51
284.687	32.6
284.903	30.31
285.119	28.04
285.335	35.74
285.551	36.71
285.767	27.81
285.982	37.75
286.198	26.71
286.414	6.38
286.63	19.77
286.846	8.9
287.061	7.8
287.277	15.55
287.493	32.46
287.709	26.23
287.924	44.77
288.14	38.15
288.356	37.09
288.571	31.1
288.787	31.72
289.003	20.81
289.218	19.3
289.434	10.71
289.65	22.23
289.865	4.32
290.081	21.93
290.296	21.43
290.512	8.13
290.727	-11.7
290.943	10.47
291.159	-5.17
291.374	-1.89
291.59	16.05
291.805	16.96
292.021	7.94
292.236	13.17
292.451	18.69
292.667	29.34
292.882	42.2
293.098	53.95
293.313	60.1
293.529	51.58
293.744	43.26
293.959	36.03
294.175	37.2
294.39	25.96
294.605	31.96
294.821	31.07
295.036	32.49
295.251	34.51
295.467	39.32
295.682	26.29
295.897	35.59
296.112	24.53
296.328	14.45
296.543	10.66
296.758	19.25
296.973	6.39
297.188	22.43
297.404	26.14
297.619	26.03
297.834	25.61
298.049	42.08
298.264	29.42
298.479	30.75
298.694	20.59
298.909	19.72
299.125	12.94
299.34	22.02
299.555	15.03
299.77	27.9
299.985	28.37
300.2	11.93
300.415	12.69
300.63	13.71
300.845	10.51
301.06	8.52
301.275	13.32
301.49	23.87
301.704	30.69
301.919	27.64
302.134	38.35
302.349	31.29
302.564	26.54
302.779	21.91
302.994	26.53
303.209	23.78
303.423	36.13
303.638	40.94
303.853	37.42
304.068	21.1
304.283	16.33
304.497	15.64
304.712	9.83
304.927	22.16
305.142	35.84
305.356	25
305.571	19.04
305.786	29.69
306	18.94
306.215	13.52
306.43	38.87
306.644	49.26
306.859	42.44
307.074	45.77
307.288	40.17
307.503	36.83
307.717	38.31
307.932	31.93
308.147	27.02
308.361	34.94
308.576	36.79
308.79	27.97
309.005	34.97
309.219	40.66
309.434	27.32
309.648	23.82
309.863	13.2
310.077	5.35
310.292	-4.72
310.506	5.58
310.72	0.89
310.935	7.56
311.149	9.71
311.364	26.35
311.578	33.5
311.792	29.9
312.007	37.67
312.221	35.03
312.435	29.7
312.649	23.22
312.864	35.8
313.078	35.76
313.292	26.98
313.507	36.55
313.721	25
313.935	11.47
314.149	-1.42
314.363	3.19
314.578	-6.6
314.792	-4.16
315.006	4.27
315.22	2.29
315.434	19.6
315.648	24.28
315.862	26.27
316.077	21.66
316.291	37
316.505	30.13
316.719	27.99
316.933	38.99
317.147	42.11
317.361	33.07
317.575	34.47
317.789	37.4
318.003	30.46
318.217	28.3
318.431	36.11
318.645	39.29
318.859	48.45
319.073	55.68
319.287	48.29
319.5	29.87
319.714	35.2
319.928	30.89
320.142	29.55
320.356	31.51
320.57	50.42
320.784	38.74
320.997	43.01
321.211	41.88
321.425	44.97
321.639	16
321.853	40.53
322.066	40.39
322.28	18.08
322.494	21.89
322.707	41.13
322.921	24.06
323.135	17.85
323.349	32.18
323.562	28.55
323.776	22.65
323.989	20.8
324.203	15.31
324.417	11.16
324.63	17.52
324.844	17.79
325.057	32.34
325.271	32.29
325.485	22.03
325.698	13.31
325.912	14.65
326.125	-7.46
326.339	4.21
326.552	3.75
326.766	0.34
326.979	1.13
327.193	8.7
327.406	7.21
327.619	20.71
327.833	45.48
328.046	43.63
328.26	43.29
328.473	39.75
328.686	35.49
328.9	19.54
329.113	15.1
329.326	7.45
329.54	9.99
329.753	17.73
329.966	19.78
330.179	21.29
330.393	29.51
330.606	27.93
330.819	25.03
331.032	29.47
331.246	33.56
331.459	34.14
331.672	35.31
331.885	37.26
332.098	32.92
332.311	21.12
332.525	30.05
332.738	18.91
332.951	25.06
333.164	20.74
333.377	23.38
333.59	19.56
333.803	23.81
334.016	6.91
334.229	20.74
334.442	23.88
334.655	23.6
334.868	27.73
335.081	22.47
335.294	15.25
335.507	13.9
335.72	20.99
335.933	13.12
336.146	24.22
336.359	23.83
336.572	29.71
336.785	4.35
336.997	8.25
337.21	4.07
337.423	-1.4
337.636	-19.72
337.849	3.92
338.062	8.96
338.274	15.27
338.487	22.84
338.7	20.71
338.913	22.19
339.125	27.59
339.338	24.4
339.551	25.96
339.763	35.11
339.976	39.84
340.189	30.75
340.402	28.22
340.614	28.26
340.827	27.21
341.039	22.96
341.252	33.64
341.465	34.51
341.677	40.2
341.89	44.95
342.102	38.1
342.315	35.38
342.527	40.09
342.74	38.16
342.952	35.69
343.165	41.44
343.377	44.16
343.59	41.5
343.802	45.68
344.015	46.22
344.227	32.9
344.44	21.81
344.652	30.35
344.864	13.45
345.077	4.69
345.289	31.23
345.502	41.35
345.714	29.26
345.926	38.45
346.139	47.58
346.351	25.37
346.563	25.49
346.775	33.6
346.988	31.84
347.2	21.43
347.412	21.04
347.624	21.74
347.837	14.49
348.049	8.9
348.261	8.79
348.473	26.65
348.685	22.66
348.897	19.32
349.11	21.92
349.322	30.27
349.534	16.51
349.746	13.66
349.958	14.85
350.17	15.05
350.382	7.34
350.594	0.27
350.806	-0.2
351.018	5.63
351.23	11.53
351.442	7.72
351.654	13.88
351.866	18.64
352.078	25.05
352.29	19.54
352.502	25.32
352.714	23.91
352.926	25.49
353.138	31.13
353.35	29.13
353.561	31.17
353.773	36.1
353.985	32.38
354.197	24.68
354.409	29.74
354.621	24.53
354.832	16.32
355.044	19.99
355.256	13.06
355.468	11.49
355.679	10.58
355.891	29.41
356.103	33.67
356.314	33.99
356.526	34.17
356.738	37.82
356.949	27.54
357.161	36.69
357.373	38.54
357.584	37.63
357.796	42.14
358.008	35.46
358.219	23.97
358.431	21.37
358.642	27.76
358.854	24.48
359.065	33.04
359.277	32.6
359.488	38.12
359.7	33.32
359.911	26.83
360.123	28.74
360.334	32.61
360.546	30.29
360.757	41.36
360.969	39.33
361.18	36.87
361.391	30.39
361.603	30.64
361.814	10.14
362.025	14.52
362.237	10.81
362.448	8.32
362.659	3.2
362.871	10.85
363.082	11.21
363.293	12.84
363.504	13.55
363.716	11.86
363.927	-7.07
364.138	-14.68
364.349	-1.39
364.56	-7.76
364.772	-1.5
364.983	15.18
365.194	22.74
365.405	20.73
365.616	32.1
365.827	27.07
366.038	32.65
366.25	27.33
366.461	24.3
366.672	24.42
366.883	26.85
367.094	27.11
367.305	32.41
367.516	36.45
367.727	33.47
367.938	42.98
368.149	34.21
368.36	27.83
368.571	22.79
368.781	24.69
368.992	16.52
369.203	5.09
369.414	-2.94
369.625	-2.71
369.836	6.34
370.047	12.82
370.258	23.34
370.468	32.37
370.679	34.86
370.89	32.1
371.101	27.03
371.312	24.65
371.522	21.65
371.733	17.27
371.944	12.09
372.155	13.26
372.365	12.96
372.576	12.79
372.787	16.89
372.997	29.57
373.208	30.76
373.419	31.21
373.629	33.9
373.84	34.92
374.05	20.87
374.261	19.86
374.472	21.79
374.682	25.38
374.893	26.48
375.103	19.1
375.314	20.49
375.524	26.26
375.735	19.89
375.945	21.01
376.156	28.61
376.366	27.59
376.577	20.62
376.787	28.89
376.997	28.99
377.208	24.33
377.418	23.99
377.629	26.97
377.839	19.92
378.049	12.49
378.26	15.78
378.47	10.77
378.68	14.6
378.89	10.15
379.101	12.48
379.311	10.05
379.521	22.21
379.732	15.31
379.942	10.81
380.152	7.69
380.362	7.07
380.572	2.17
380.783	10.4
380.993	23.78
381.203	28.73
381.413	34.19
381.623	30.22
381.833	31.9
382.043	28.78
382.253	20.67
382.463	20.54
382.674	19.33
382.884	18.61
383.094	17.14
383.304	26.87
383.514	25.6
383.724	34.58
383.934	31.08
384.144	31.52
384.353	23.42
384.563	21.45
384.773	14.81
384.983	19.23
385.193	14.37
385.403	14.93
385.613	14.51
385.823	7.33
386.033	2.74
386.242	3.91
386.452	7.24
386.662	9.03
386.872	19.68
387.082	14.81
387.291	19.13
387.501	20.29
387.711	17.41
387.921	14.85
388.13	16.48
388.34	16.46
388.55	17.66
388.759	19.84
388.969	16.42
389.179	18.21
389.388	18.03
389.598	11.53
389.807	11.61
390.017	14.73
390.227	11.26
390.436	7.08
390.646	9.81
390.855	11.26
391.065	8.27
391.274	10.44
391.484	14.16
391.693	12.68
391.903	9.95
392.112	11.67
392.322	11.2
392.531	9.41
392.74	11.2
392.95	11.25
393.159	10.17
393.369	11.08
393.578	10.66
393.787	8.69
393.997	9.18
394.206	9.54
394.415	9.48
394.625	9.09
394.834	8.85
395.043	7.05
395.252	7.07
395.462	6.31
395.671	6.37
395.88	6.95
396.089	7.66
396.298	6.99
396.508	8.33
396.717	8.14
396.926	8.02
397.135	7.28
397.344	7.57
397.553	6.44
397.762	6.36
397.971	6.16
398.181	6.36
398.39	6.24
398.599	5.58
398.808	5.6
399.017	5.92
399.226	6.08
399.435	6.42
399.644	6.55
399.853	6.69
400.062	6.26
400.27	6.31
400.479	5.67
400.688	6.33
400.897	6.09
401.106	6.24
401.315	6.5
401.524	6.55
401.733	6.14
401.941	6.38
402.15	6.37
402.359	5.88
402.568	5.99
402.777	5.8
402.985	5.73
403.194	5.61
403.403	5.83
403.612	5.79
403.82	5.65
404.029	5.45
404.238	5.54
404.446	5.51
404.655	5.47
404.864	5.62
405.072	5.71
405.281	5.73
405.489	5.7
405.698	5.67
405.906	5.59
406.115	5.52
406.324	5.39
406.532	5.39
406.741	5.27
406.949	5.33
407.158	5.32
407.366	5.27
407.574	5.2
407.783	5.2
407.991	5.21
408.2	5.42
408.408	5.38
408.617	5.25
408.825	5.29
409.033	5.36
409.242	5.09
409.45	5.18
409.658	5.19
409.867	5.17
410.075	4.96
410.283	4.98
410.491	4.95
410.7	4.83
410.908	4.92
411.116	4.96
411.324	4.97
411.533	4.82
411.741	4.95
411.949	4.7
412.157	4.61
412.365	4.66
412.573	4.78
412.781	4.67
412.99	4.85
413.198	4.94
413.406	4.81
413.614	4.69
413.822	4.67
414.03	4.73
414.238	4.67
414.446	4.62
414.654	4.62
414.862	4.86
415.07	4.74
415.278	4.7
415.486	4.69
415.694	4.73
415.902	4.57
416.109	4.44
416.317	4.52
416.525	4.56
416.733	4.67
416.941	4.45
417.149	4.63
417.357	4.56
417.564	4.4
417.772	4.25
417.98	4.53
418.188	4.38
418.395	4.29
418.603	4.32
418.811	4.35
419.019	4.33
419.226	4.43
419.434	4.61
419.642	4.62
419.849	4.56
420.057	4.48
420.265	4.44
420.472	4.28
420.68	4.36
420.887	4.33
421.095	4.27
421.302	4.25
421.51	4.24
421.717	4.13
421.925	4.14
422.132	4.19
422.34	4.2
422.547	4.36
422.755	4.31
422.962	4.35
423.17	4.24
423.377	4.22
423.585	3.95
423.792	4.04
423.999	4.02
424.207	4.01
424.414	3.98
424.621	4.04
424.829	4.03
425.036	3.98
425.243	4.05
425.451	4.08
425.658	4.13
425.865	4.14
426.072	4.13
426.28	4.13
426.487	4.07
426.694	4.13
426.901	4.06
427.108	3.99
427.315	3.88
427.523	3.93
427.73	3.96
427.937	4.09
428.144	4.04
428.351	4.34
428.558	4.27
428.765	4.19
428.972	4.16
429.179	4.32
429.386	4.18
429.593	4.29
429.8	4.24
430.007	4.18
430.214	4.19
430.421	4.17
430.628	4.08
430.835	3.99
431.042	3.94
431.249	3.98
431.456	3.91
431.662	4
431.869	4.25
432.076	4.33
432.283	4.26
432.49	4.3
432.697	4.18
432.903	4.04
433.11	4.01
433.317	4.09
433.524	4.21
433.73	4.33
433.937	4.27
434.144	4.28
434.35	4.24
434.557	4.14
434.764	4.14
434.97	4.25
435.177	4.21
435.384	4.2
435.59	4.11
435.797	4.16
436.003	4.09
436.21	4.16
436.416	4.2
436.623	4.37
436.829	4.26
437.036	4.29
437.242	4.25
437.449	4.21
437.655	4.15
437.862	4.18
438.068	4.2
438.275	4.26
438.481	4.35
438.687	4.37
438.894	4.39
439.1	4.5
439.307	4.54
439.513	4.5
439.719	4.48
439.926	4.49
440.132	4.5
440.338	4.54
440.544	4.62
440.751	4.73
440.957	4.79
441.163	4.78
441.369	4.76
441.575	4.62
441.782	4.64
441.988	4.63
442.194	4.55
442.4	4.57
442.606	4.67
442.812	4.69
443.018	4.66
443.224	4.64
443.431	4.61
443.637	4.56
443.843	4.5
444.049	4.56
444.255	4.66
444.461	4.69
444.667	4.73
444.873	4.84
445.079	4.79
445.284	4.85
445.49	4.91
445.696	4.91
445.902	4.83
446.108	4.94
446.314	4.86
446.52	4.83
446.726	4.91
446.931	4.96
447.137	4.96
447.343	5.1
447.549	5.05
447.755	5.06
447.96	4.98
448.166	4.96
448.372	4.81
448.578	4.91
448.783	4.88
448.989	4.95
449.195	4.94
449.4	4.98
449.606	4.9
449.812	4.91
450.017	4.92
450.223	4.89
450.428	4.86
450.634	4.89
450.84	4.9
451.045	4.87
451.251	4.89
451.456	4.94
451.662	4.91
451.867	4.91
452.073	4.95
452.278	4.97
452.483	5.03
452.689	5.09
452.894	4.97
453.1	4.97
453.305	4.93
453.51	4.96
453.716	4.9
453.921	5.06
454.127	5.08
454.332	5.03
454.537	4.91
454.742	4.96
454.948	4.94
455.153	4.92
455.358	4.97
455.563	5.07
455.769	5.16
455.974	5.13
456.179	5.13
456.384	5.08
456.589	5.03
456.795	4.93
457	4.95
457.205	5.01
457.41	5.1
457.615	5.11
457.82	5.13
458.025	5.15
458.23	5.03
458.435	5.04
458.64	4.92
458.845	4.92
459.05	4.93
459.255	5.06
459.46	5.06
459.665	5.16
459.87	5.19
460.075	5.15
460.28	5.07
460.485	5.03
460.69	5.17
460.895	5.2
461.099	5.2
461.304	5.32
461.509	5.42
461.714	5.38
461.919	5.42
462.123	5.44
462.328	5.42
462.533	5.38
462.738	5.35
462.942	5.26
463.147	5.33
463.352	5.26
463.556	5.27
463.761	5.24
463.966	5.29
464.17	5.33
464.375	5.44
464.58	5.5
464.784	5.57
464.989	5.63
465.193	5.51
465.398	5.4
465.602	5.41
465.807	5.39
466.011	5.34
466.216	5.39
466.42	5.45
466.625	5.4
466.829	5.4
467.034	5.43
467.238	5.43
467.443	5.46
467.647	5.54
467.851	5.61
468.056	5.52
468.26	5.5
468.464	5.52
468.669	5.47
468.873	5.5
