Data from Ofra_PS_Phys_1GT43_Reflection_2.txt Node
Date: Tue Jul 20 17:52:40 EDT 2021
User: USUARIO
Spectrometer: FLMT01687
Trigger mode: 0
Integration Time (sec): 1.042999E0
Scans to average: 2
Electric dark correction enabled: true
Nonlinearity correction enabled: false
Boxcar width: 2
XAxis mode: Wavelengths
Number of Pixels in Spectrum: 3648
>>>>>Begin Spectral Data<<<<<
179.494	-32.66
179.716	-105.34
179.937	-101.36
180.158	-650.54
180.38	-601.53
180.601	508.25
180.823	321.92
181.044	-10.82
181.265	-617.44
181.486	-17.47
181.708	-41.78
181.929	-18.92
182.15	42.45
182.372	-116.2
182.593	27.8
182.814	-5.52
183.035	21.96
183.257	30.03
183.478	-0.88
183.699	-1.32
183.92	21.48
184.141	43.67
184.363	22.45
184.584	56.07
184.805	71.5
185.026	67.09
185.247	58.16
185.468	51.4
185.689	36.9
185.91	16.04
186.132	-1.96
186.353	-7.41
186.574	20.83
186.795	11.14
187.016	18.3
187.237	57.01
187.458	13.3
187.679	-16.59
187.9	-51.44
188.121	-93
188.342	-424.37
188.563	-75.96
188.784	2.15
189.005	40.2
189.226	24.73
189.447	40.24
189.667	36.87
189.888	17.12
190.109	11.8
190.33	17.27
190.551	-19.24
190.772	11.59
190.993	13.67
191.214	25.67
191.434	32.74
191.655	29.49
191.876	27.54
192.097	14.12
192.318	7.87
192.538	0.24
192.759	29.67
192.98	8.55
193.201	31.76
193.421	3.96
193.642	25.83
193.863	-4.6
194.083	-0.49
194.304	-0.63
194.525	25.76
194.745	26.88
194.966	55.07
195.187	34.03
195.407	5.3
195.628	20.72
195.848	-21.38
196.069	-36.64
196.29	-11.7
196.51	17.94
196.731	-1.66
196.951	38.54
197.172	35.97
197.392	54.46
197.613	32.38
197.833	31.76
198.054	-22.45
198.274	1.64
198.495	-13.73
198.715	-6.13
198.936	-11.5
199.156	-2.58
199.377	6.96
199.597	11.16
199.817	27.4
200.038	30.84
200.258	34.64
200.479	34.17
200.699	39.43
200.919	9.53
201.14	29.66
201.36	29.61
201.58	-8.35
201.801	-4.26
202.021	38.9
202.241	-17.5
202.461	-25.88
202.682	24.6
202.902	71.21
203.122	31.42
203.342	78.42
203.563	73.45
203.783	96.24
204.003	65.88
204.223	98.52
204.443	75.91
204.663	0.73
204.884	-14.52
205.104	6.07
205.324	5.49
205.544	0.53
205.764	26.6
205.984	5.5
206.204	6.71
206.424	11.26
206.644	14.91
206.864	-1.71
207.084	7.83
207.304	26.92
207.525	11.65
207.745	-10.92
207.964	-19.99
208.184	-3.69
208.404	-6.24
208.624	-1.51
208.844	16.04
209.064	22.8
209.284	29.17
209.504	27.61
209.724	24.21
209.944	44.62
210.164	30.6
210.384	17.8
210.604	63.71
210.823	58.55
211.043	32.4
211.263	31.76
211.483	18.08
211.703	-4.01
211.922	17.06
212.142	30.37
212.362	34.42
212.582	49.52
212.801	49.48
213.021	38.77
213.241	-52.23
213.461	12.57
213.68	21.47
213.9	-28.65
214.12	-9.88
214.339	0.27
214.559	-11.38
214.779	-1.1
214.998	43.51
215.218	40.83
215.438	37.29
215.657	30.4
215.877	23.98
216.096	39.92
216.316	18.75
216.535	34.23
216.755	37
216.974	28.26
217.194	-4.94
217.413	12.97
217.633	8.1
217.852	15.27
218.072	27.84
218.291	54.73
218.511	49.53
218.73	39.04
218.95	5.5
219.169	6.72
219.389	-9.19
219.608	-2.38
219.827	18.25
220.047	35.13
220.266	29.09
220.485	13.59
220.705	14.81
220.924	16.64
221.143	7.58
221.363	3.52
221.582	6.92
221.801	1.58
222.021	-12.73
222.24	5.36
222.459	-3.38
222.678	-18.58
222.897	1.95
223.117	13.91
223.336	30.82
223.555	42.14
223.774	51.11
223.993	71.64
224.213	74.67
224.432	69.42
224.651	49.12
224.87	32.09
225.089	15.78
225.308	0.1
225.527	5.5
225.746	7.86
225.965	15.17
226.184	32.14
226.404	58.18
226.623	28.55
226.842	45.48
227.061	69.14
227.28	70.69
227.499	32.84
227.718	39.38
227.936	14.04
228.155	2.2
228.374	15.92
228.593	12.29
228.812	22.66
229.031	45.81
229.25	25.24
229.469	18.98
229.688	32.08
229.907	38.96
230.125	41.51
230.344	39.47
230.563	46.5
230.782	36.67
231.001	21.3
231.22	15.59
231.438	39.89
231.657	32.31
231.876	47.66
232.095	60.68
232.313	56.94
232.532	53.58
232.751	60.02
232.969	55.73
233.188	53.81
233.407	55.58
233.625	61.66
233.844	57.46
234.063	50.76
234.281	64.14
234.5	54.9
234.719	48.42
234.937	40.49
235.156	44.17
235.374	5.17
235.593	-8.32
235.811	-52
236.03	-105.96
236.249	-157.57
236.467	-91.91
236.686	-54.46
236.904	-34.81
237.123	8.38
237.341	20.28
237.559	36.72
237.778	41.01
237.996	34.67
238.215	40.23
238.433	36.69
238.652	29
238.87	24.97
239.088	37.21
239.307	28.65
239.525	25.05
239.743	30.1
239.962	23.17
240.18	28.52
240.398	29.12
240.617	34.47
240.835	12.12
241.053	17.02
241.271	17.9
241.49	3.54
241.708	4.02
241.926	10.94
242.144	7.8
242.363	-2.42
242.581	-0.73
242.799	5.7
243.017	29.08
243.235	36.53
243.453	30.62
243.672	43.41
243.89	33.71
244.108	21.4
244.326	10.84
244.544	-2.48
244.762	-25.95
244.98	-11.29
245.198	-34.43
245.416	-14.94
245.634	0.09
245.852	17.01
246.07	14.64
246.288	8.23
246.506	9.85
246.724	21.62
246.942	20.45
247.16	17.51
247.378	31.06
247.596	40.54
247.814	26.65
248.032	2.42
248.25	5.13
248.468	2.69
248.685	-0.8
248.903	26.47
249.121	28.9
249.339	26.61
249.557	47.44
249.775	54.58
249.992	56.91
250.21	56.74
250.428	61.51
250.646	11.74
250.863	5.17
251.081	-14.24
251.299	-51.5
251.517	-32.86
251.734	-38.34
251.952	-89.95
252.17	-61.36
252.387	2.74
252.605	-13.39
252.823	13.95
253.04	31.56
253.258	29.02
253.475	25.77
253.693	49.39
253.911	41.44
254.128	37.02
254.346	33.38
254.563	46.52
254.781	25.05
254.998	27.26
255.216	31.24
255.433	30.54
255.651	28.19
255.868	41.45
256.086	43.67
256.303	31.63
256.521	30.39
256.738	15.04
256.956	15.19
257.173	2.48
257.39	-6.82
257.608	-8.58
257.825	30.94
258.043	39.02
258.26	53.71
258.477	77.94
258.695	63.33
258.912	45.8
259.129	53.64
259.346	42.46
259.564	35.91
259.781	37.46
259.998	45.54
260.216	50.69
260.433	34.08
260.65	32.97
260.867	53.39
261.084	63.12
261.302	47.23
261.519	60.51
261.736	60.3
261.953	53.76
262.17	53.79
262.387	63.07
262.604	49.05
262.822	0.69
263.039	-16.84
263.256	-31.73
263.473	-44.36
263.69	-10.26
263.907	14.64
264.124	36.32
264.341	66.23
264.558	63.68
264.775	78.96
264.992	93.35
265.209	36.05
265.426	-17.47
265.643	3.04
265.86	-10.25
266.077	-4.41
266.294	19.02
266.51	42.15
266.727	68.2
266.944	67.51
267.161	55.31
267.378	44.74
267.595	38.52
267.812	19.09
268.028	14.94
268.245	7.85
268.462	4.88
268.679	-4.95
268.896	3.79
269.112	29.92
269.329	34.04
269.546	45.46
269.763	50.77
269.979	52.45
270.196	41.12
270.413	36.88
270.629	23.93
270.846	29.74
271.063	4.2
271.279	-8.26
271.496	-10.12
271.712	11.96
271.929	25.78
272.146	35.22
272.362	68.4
272.579	90.85
272.795	66.87
273.012	27.73
273.228	31.5
273.445	17.36
273.661	4.53
273.878	-10.37
274.094	15.11
274.311	10.39
274.527	32.96
274.744	20.36
274.96	31.27
275.177	28.7
275.393	26.14
275.609	9
275.826	25.84
276.042	39.47
276.259	42.25
276.475	49.75
276.691	60.4
276.908	37.73
277.124	32.93
277.34	13.36
277.557	15.4
277.773	-4.02
277.989	4.48
278.205	-9.83
278.422	7.15
278.638	27.9
278.854	31.48
279.07	16.78
279.286	23.07
279.503	11.99
279.719	-9.01
279.935	-4.89
280.151	28.68
280.367	19.48
280.583	4.6
280.799	0.13
281.016	2.31
281.232	-4.69
281.448	-6.83
281.664	13.03
281.88	8.21
282.096	7.72
282.312	7.97
282.528	23.68
282.744	19.49
282.96	24.55
283.176	31.81
283.392	33.37
283.608	22.95
283.824	33.82
284.04	36.64
284.256	28.29
284.471	19.69
284.687	42.51
284.903	29.91
285.119	20.69
285.335	-0.64
285.551	41.48
285.767	26.34
285.982	44.62
286.198	63.17
286.414	50.14
286.63	33.16
286.846	38.33
287.061	38.17
287.277	34.18
287.493	36.19
287.709	37.75
287.924	18.19
288.14	-7.94
288.356	-7.69
288.571	12.94
288.787	17.4
289.003	12.95
289.218	36
289.434	51.05
289.65	19.42
289.865	23.71
290.081	39.77
290.296	39.85
290.512	36.18
290.727	46.13
290.943	36.5
291.159	48.08
291.374	36.97
291.59	24.64
291.805	36.04
292.021	26.25
292.236	14.78
292.451	11.36
292.667	31.13
292.882	13.09
293.098	18.94
293.313	2.52
293.529	13.61
293.744	-27.66
293.959	-13.43
294.175	-10.59
294.39	-22.23
294.605	-36.29
294.821	-37.7
295.036	-12.13
295.251	3.33
295.467	-2.99
295.682	4.71
295.897	4.93
296.112	-9.75
296.328	-19.41
296.543	-10.07
296.758	10.22
296.973	16.33
297.188	18.77
297.404	13.45
297.619	8.36
297.834	-43.19
298.049	-33.31
298.264	-19.61
298.479	-36.22
298.694	-11.11
298.909	-14.99
299.125	-2.59
299.34	8.57
299.555	49.26
299.77	44.53
299.985	43.99
300.2	32.65
300.415	-5.41
300.63	-52.33
300.845	-8.44
301.06	4.69
301.275	-3.04
301.49	5.82
301.704	13.11
301.919	2.08
302.134	-13.66
302.349	3.77
302.564	4.87
302.779	19.99
302.994	32.9
303.209	44.05
303.423	44.24
303.638	35.19
303.853	31.86
304.068	24.57
304.283	10.56
304.497	-5.05
304.712	2.12
304.927	2.51
305.142	-21.14
305.356	-13.33
305.571	-3.6
305.786	-2.8
306	-4.53
306.215	18.25
306.43	19.54
306.644	19.33
306.859	33.28
307.074	33.91
307.288	28.84
307.503	31.85
307.717	28.31
307.932	19.96
308.147	18.77
308.361	14.43
308.576	11.86
308.79	12.08
309.005	10.48
309.219	2.63
309.434	3.27
309.648	4.28
309.863	-5.51
310.077	17.61
310.292	20.85
310.506	12.4
310.72	18.9
310.935	28.39
311.149	13.06
311.364	21.12
311.578	37.1
311.792	33.87
312.007	36.14
312.221	37.73
312.435	55.72
312.649	42.81
312.864	53.3
313.078	40.82
313.292	39.71
313.507	13.61
313.721	12.06
313.935	13.55
314.149	5.69
314.363	6.21
314.578	28.37
314.792	27.62
315.006	18.81
315.22	17.84
315.434	12.46
315.648	-14.88
315.862	-17.49
316.077	-39.84
316.291	-12.34
316.505	4.2
316.719	10.35
316.933	15.43
317.147	18.66
317.361	9.63
317.575	19.18
317.789	29.43
318.003	30.45
318.217	30.51
318.431	28.41
318.645	29.84
318.859	37.1
319.073	47.85
319.287	41.84
319.5	54.98
319.714	38.89
319.928	39
320.142	25.26
320.356	45.04
320.57	35.27
320.784	39.72
320.997	25.46
321.211	23.08
321.425	22.46
321.639	36.62
321.853	51.53
322.066	49.66
322.28	59.37
322.494	50.47
322.707	46.08
322.921	19.05
323.135	19.02
323.349	12.99
323.562	4.22
323.776	10.69
323.989	10.44
324.203	-7.44
324.417	-14.98
324.63	-33.78
324.844	-38.18
325.057	-15.22
325.271	10.54
325.485	0.13
325.698	2.74
325.912	5.16
326.125	5.79
326.339	4.22
326.552	8.76
326.766	19.57
326.979	12.87
327.193	7.02
327.406	5.97
327.619	19.53
327.833	21.94
328.046	11.8
328.26	-1
328.473	13.73
328.686	6.79
328.9	3.28
329.113	13.85
329.326	22.72
329.54	14.14
329.753	-7.66
329.966	-10.33
330.179	11.64
330.393	12.77
330.606	21.48
330.819	41
331.032	42.54
331.246	23.37
331.459	3.58
331.672	0.27
331.885	-20.72
332.098	-22.08
332.311	-19.64
332.525	-7.24
332.738	-12.98
332.951	32.02
333.164	33.38
333.377	38.31
333.59	46.38
333.803	48.25
334.016	42.39
334.229	39.27
334.442	33.85
334.655	28.12
334.868	35.83
335.081	38.31
335.294	42.38
335.507	45.64
335.72	36.95
335.933	5.87
336.146	-5.46
336.359	-10.91
336.572	-17.64
336.785	-1.93
336.997	18.48
337.21	13.92
337.423	-3.07
337.636	-18.22
337.849	-21.1
338.062	-21
338.274	-13.42
338.487	3.51
338.7	3.03
338.913	-0.69
339.125	0.84
339.338	-4.35
339.551	6.61
339.763	19.57
339.976	37.04
340.189	39.89
340.402	36.23
340.614	29.73
340.827	30.71
341.039	13.04
341.252	3.91
341.465	15.29
341.677	31.9
341.89	17.5
342.102	32.9
342.315	18.5
342.527	16.55
342.74	22.19
342.952	26.28
343.165	30.38
343.377	50.86
343.59	42.2
343.802	42.22
344.015	47.6
344.227	35.95
344.44	34.43
344.652	39.16
344.864	15.58
345.077	20.3
345.289	35.24
345.502	14.59
345.714	20.95
345.926	37.82
346.139	34.61
346.351	24.95
346.563	30.53
346.775	14.43
346.988	-12.65
347.2	-42.89
347.412	-24.7
347.624	3.93
347.837	11.47
348.049	21.96
348.261	27.29
348.473	36.73
348.685	35.03
348.897	43.86
349.11	38.41
349.322	36.71
349.534	43.47
349.746	48.02
349.958	36.51
350.17	34.42
350.382	32.96
350.594	7.67
350.806	8.27
351.018	22.96
351.23	26.83
351.442	29.65
351.654	34.51
351.866	28.06
352.078	21.81
352.29	16.18
352.502	12.21
352.714	7.03
352.926	-9.39
353.138	-0.63
353.35	1.22
353.561	-14.25
353.773	-16.3
353.985	8.07
354.197	-13.45
354.409	14.82
354.621	27.54
354.832	24.27
355.044	8.53
355.256	8.86
355.468	-12.23
355.679	-5.55
355.891	2.8
356.103	13
356.314	26.96
356.526	48.71
356.738	42.87
356.949	47.77
357.161	65.6
357.373	69.89
357.584	51.18
357.796	41.31
358.008	25.58
358.219	20.94
358.431	16.95
358.642	17.8
358.854	24.01
359.065	32.38
359.277	20.15
359.488	29.26
359.7	33.57
359.911	24.72
360.123	20.13
360.334	23.53
360.546	8.62
360.757	3.3
360.969	10.35
361.18	12.14
361.391	23.9
361.603	21.44
361.814	20.19
362.025	19.95
362.237	24.46
362.448	10.62
362.659	8.69
362.871	9.82
363.082	6
363.293	-5.19
363.504	11.47
363.716	7.8
363.927	-9.25
364.138	-14.52
364.349	-1.29
364.56	-21.18
364.772	-4.24
364.983	20.93
365.194	28.36
365.405	8.35
365.616	15.51
365.827	18.69
366.038	5.24
366.25	0.76
366.461	20.3
366.672	17.82
366.883	10.96
367.094	16.01
367.305	16.55
367.516	8.34
367.727	11.35
367.938	10.22
368.149	13.01
368.36	11.35
368.571	21.51
368.781	11.88
368.992	15.86
369.203	18.39
369.414	18.37
369.625	17.13
369.836	22.73
370.047	25.31
370.258	14.63
370.468	11.21
370.679	10.46
370.89	-1.23
371.101	-4.86
371.312	4.68
371.522	11.1
371.733	7.38
371.944	19.32
372.155	26.41
372.365	14.04
372.576	15.06
372.787	12.89
372.997	5.27
373.208	-12.6
373.419	11.38
373.629	-0.64
373.84	-9.9
374.05	-10.46
374.261	5.23
374.472	-4.3
374.682	16.44
374.893	19.56
375.103	38.29
375.314	33.88
375.524	22.91
375.735	11.62
375.945	12.19
376.156	3.03
376.366	1.28
376.577	16.53
376.787	19.78
376.997	27.18
377.208	29.18
377.418	35.42
377.629	41.1
377.839	31.49
378.049	35.92
378.26	39.63
378.47	34.5
378.68	15.68
378.89	14.57
379.101	5.91
379.311	-9.77
379.521	-4.72
379.732	12.83
379.942	20.23
380.152	16.96
380.362	14.81
380.572	14.58
380.783	9.41
380.993	6.28
381.203	13.23
381.413	13.5
381.623	4.36
381.833	6.38
382.043	-0.54
382.253	-14.14
382.463	-12.47
382.674	-11.82
382.884	-14.63
383.094	-5.45
383.304	3.55
383.514	11.99
383.724	26.77
383.934	17.9
384.144	16.44
384.353	22.81
384.563	20.13
384.773	12.09
384.983	20.52
385.193	28.08
385.403	21.8
385.613	24.45
385.823	21.93
386.033	14.71
386.242	6.27
386.452	-0.62
386.662	-1.33
386.872	6.66
387.082	9.65
387.291	7.91
387.501	11.65
387.711	10.33
387.921	4.01
388.13	3.51
388.34	10.47
388.55	9.37
388.759	8.54
388.969	13.57
389.179	16.15
389.388	16.22
389.598	17.24
389.807	13.33
390.017	9.39
390.227	8.19
390.436	4.27
390.646	0.28
390.855	2.78
391.065	0.3
391.274	0.08
391.484	2.71
391.693	7.45
391.903	10.47
392.112	12.78
392.322	11.85
392.531	11.96
392.74	9.61
392.95	7.49
393.159	6.99
393.369	7.33
393.578	8.06
393.787	7.55
393.997	7.43
394.206	6.94
394.415	8.68
394.625	8.54
394.834	9.62
395.043	9.87
395.252	10.13
395.462	8.64
395.671	7.49
395.88	7.7
396.089	7.23
396.298	7.01
396.508	7.1
396.717	7.52
396.926	7.8
397.135	7.97
397.344	7.61
397.553	8.02
397.762	7.82
397.971	7.18
398.181	6.64
398.39	6.42
398.599	5.95
398.808	5.55
399.017	5.95
399.226	6.85
399.435	6.99
399.644	7
399.853	7.65
400.062	7.26
400.27	6.95
400.479	7.36
400.688	7.4
400.897	7.3
401.106	7.19
401.315	6.88
401.524	6.78
401.733	7.09
401.941	6.88
402.15	6.98
402.359	7.08
402.568	6.76
402.777	6.7
402.985	6.36
403.194	6.21
403.403	6.21
403.612	6.47
403.82	6.07
404.029	6.28
404.238	6.48
404.446	6.41
404.655	6.24
404.864	6.31
405.072	6.27
405.281	6.23
405.489	6.28
405.698	6.42
405.906	6.5
406.115	6.42
406.324	6.32
406.532	6.15
406.741	6.1
406.949	6.02
407.158	6.11
407.366	6.07
407.574	6.07
407.783	5.9
407.991	5.84
408.2	5.85
408.408	5.75
408.617	5.72
408.825	5.7
409.033	5.77
409.242	5.71
409.45	5.84
409.658	5.82
409.867	6.01
410.075	5.97
410.283	5.84
410.491	5.63
410.7	5.56
410.908	5.47
411.116	5.55
411.324	5.63
411.533	5.85
411.741	6.12
411.949	6.2
412.157	6.21
412.365	6.23
412.573	6.02
412.781	5.9
412.99	5.79
413.198	5.69
413.406	5.77
413.614	5.98
413.822	6.05
414.03	6.18
414.238	5.98
414.446	5.73
414.654	5.71
414.862	5.65
415.07	5.4
415.278	5.54
415.486	5.56
415.694	5.4
415.902	5.35
416.109	5.26
416.317	5.42
416.525	5.36
416.733	5.4
416.941	5.26
417.149	5.38
417.357	5.31
417.564	5.42
417.772	5.37
417.98	5.32
418.188	5.41
418.395	5.29
418.603	5.26
418.811	5.16
419.019	5.13
419.226	5.02
419.434	4.9
419.642	4.85
419.849	4.91
420.057	4.94
420.265	4.79
420.472	4.97
420.68	5.03
420.887	4.96
421.095	4.95
421.302	5.05
421.51	4.89
421.717	5.06
421.925	5.07
422.132	5.13
422.34	5.13
422.547	5.23
422.755	4.91
422.962	4.86
423.17	4.78
423.377	4.63
423.585	4.48
423.792	4.6
423.999	4.59
424.207	4.5
424.414	4.64
424.621	4.77
424.829	4.65
425.036	4.6
425.243	4.61
425.451	4.59
425.658	4.54
425.865	4.63
426.072	4.71
426.28	4.89
426.487	4.96
426.694	4.94
426.901	4.97
427.108	4.9
427.315	5.03
427.523	4.98
427.73	5.06
427.937	4.97
428.144	5.16
428.351	4.89
428.558	4.8
428.765	4.58
428.972	4.6
429.179	4.58
429.386	4.67
429.593	4.65
429.8	4.65
430.007	4.66
430.214	4.52
430.421	4.36
430.628	4.56
430.835	4.76
431.042	4.75
431.249	4.94
431.456	5.14
431.662	5.13
431.869	5.13
432.076	5.2
432.283	5.14
432.49	5.11
432.697	4.97
432.903	4.97
433.11	5.04
433.317	5.06
433.524	5.17
433.73	5.17
433.937	5.2
434.144	5.09
434.35	5.12
434.557	4.97
434.764	4.99
434.97	4.88
435.177	5.05
435.384	4.88
435.59	4.94
435.797	5.14
436.003	5.15
436.21	5.06
436.416	5.1
436.623	4.97
436.829	5
437.036	5.15
437.242	5.22
437.449	5.29
437.655	5.41
437.862	5.31
438.068	5.18
438.275	5.17
438.481	5.18
438.687	5.17
438.894	5.23
439.1	5.37
439.307	5.36
439.513	5.38
439.719	5.51
439.926	5.47
440.132	5.61
440.338	5.55
440.544	5.58
440.751	5.66
440.957	5.66
441.163	5.52
441.369	5.73
441.575	5.73
441.782	5.63
441.988	5.72
442.194	5.71
442.4	5.64
442.606	5.58
442.812	5.63
443.018	5.63
443.224	5.64
443.431	5.64
443.637	5.74
443.843	5.74
444.049	5.69
444.255	5.66
444.461	5.59
444.667	5.62
444.873	5.56
445.079	5.63
445.284	5.64
445.49	5.66
445.696	5.56
445.902	5.64
446.108	5.67
446.314	5.67
446.52	5.8
446.726	6
446.931	5.97
447.137	5.92
447.343	5.9
447.549	5.86
447.755	5.78
447.96	5.86
448.166	5.87
448.372	6.08
448.578	6.1
448.783	6.2
448.989	6.22
449.195	6.28
449.4	6.11
449.606	6.1
449.812	6.03
450.017	6
450.223	5.98
450.428	6.01
450.634	5.97
450.84	6.02
451.045	6.1
451.251	6.04
451.456	6.1
451.662	6.1
451.867	6.13
452.073	6.08
452.278	6.15
452.483	6.14
452.689	6.17
452.894	6.12
453.1	6.14
453.305	6.16
453.51	6.13
453.716	6.11
453.921	6.03
454.127	6.02
454.332	6.03
454.537	6.06
454.742	6.06
454.948	6.11
455.153	6.06
455.358	6.06
455.563	6.05
455.769	6.05
455.974	6.17
456.179	6.25
456.384	6.2
456.589	6.16
456.795	6.21
457	6.04
457.205	5.97
457.41	6
457.615	6.03
457.82	6.03
458.025	6.08
458.23	6.08
458.435	6.01
458.64	5.99
458.845	6.01
459.05	5.98
459.255	6.04
459.46	6.1
459.665	6.15
459.87	6.06
460.075	6.14
460.28	6.1
460.485	6.13
460.69	6.09
460.895	6.16
461.099	6.17
461.304	6.36
461.509	6.4
461.714	6.41
461.919	6.44
462.123	6.38
462.328	6.26
462.533	6.27
462.738	6.42
462.942	6.36
463.147	6.38
463.352	6.4
463.556	6.42
463.761	6.38
463.966	6.36
464.17	6.51
464.375	6.47
464.58	6.4
464.784	6.45
464.989	6.51
465.193	6.5
465.398	6.52
465.602	6.6
465.807	6.41
466.011	6.5
466.216	6.43
466.42	6.55
466.625	6.64
466.829	6.84
467.034	6.75
467.238	6.9
467.443	6.79
467.647	6.71
467.851	6.67
468.056	6.81
468.26	6.68
468.464	6.7
468.669	6.66
468.873	6.67
