Data from Ofra_PS_Phys_4HS23_Reflection_3.txt Node
Date: Tue Jul 20 20:40:31 EDT 2021
User: USUARIO
Spectrometer: FLMT01687
Trigger mode: 0
Integration Time (sec): 1.042999E0
Scans to average: 2
Electric dark correction enabled: true
Nonlinearity correction enabled: false
Boxcar width: 2
XAxis mode: Wavelengths
Number of Pixels in Spectrum: 3648
>>>>>Begin Spectral Data<<<<<
179.494	-40.38
179.716	-64.89
179.937	47.27
180.158	26.5
180.38	48.9
180.601	68.64
180.823	111.19
181.044	37.24
181.265	-153.56
181.486	-16.86
181.708	87.05
181.929	168.81
182.15	260.73
182.372	6.92
182.593	63.68
182.814	15.61
183.035	16.82
183.257	16.15
183.478	-90.08
183.699	-26
183.92	31.55
184.141	48.39
184.363	58.59
184.584	54.73
184.805	39.46
185.026	36.92
185.247	0.76
185.468	-5.37
185.689	32.19
185.91	14.91
186.132	-23.51
186.353	8.24
186.574	52.94
186.795	34.36
187.016	73.31
187.237	69.72
187.458	59.91
187.679	27.87
187.9	-3.31
188.121	-2.67
188.342	-7.67
188.563	25.23
188.784	17.64
189.005	32.25
189.226	28.23
189.447	45.53
189.667	35.29
189.888	21.23
190.109	44.5
190.33	35.22
190.551	17.48
190.772	29.59
190.993	65.33
191.214	65.24
191.434	67.56
191.655	80.63
191.876	58.4
192.097	66.67
192.318	71.66
192.538	46.25
192.759	39.03
192.98	46.74
193.201	43.54
193.421	42.83
193.642	57.4
193.863	60.8
194.083	49.46
194.304	45.61
194.525	25.82
194.745	41.44
194.966	16.55
195.187	45.84
195.407	22.87
195.628	11.28
195.848	9.12
196.069	44.12
196.29	32.68
196.51	39.29
196.731	54.9
196.951	42.51
197.172	20.47
197.392	24.27
197.613	13.15
197.833	9.73
198.054	20.46
198.274	35.57
198.495	13.84
198.715	18.11
198.936	24.4
199.156	10.81
199.377	8.08
199.597	8.89
199.817	31.58
200.038	22.8
200.258	34.68
200.479	43.7
200.699	51.13
200.919	43.63
201.14	40.7
201.36	18.81
201.58	-58.27
201.801	7.97
202.021	-19.33
202.241	19.04
202.461	31.37
202.682	45.61
202.902	44.24
203.122	74.54
203.342	68.01
203.563	52.15
203.783	66.55
204.003	40.12
204.223	49.8
204.443	28.84
204.663	36.76
204.884	18.86
205.104	46.09
205.324	28.27
205.544	29.92
205.764	27.83
205.984	4.18
206.204	-49.73
206.424	-15.29
206.644	-12.05
206.864	11.68
207.084	51.51
207.304	73.24
207.525	63.92
207.745	59.86
207.964	27.42
208.184	12.48
208.404	-2.96
208.624	10.37
208.844	11.34
209.064	22.52
209.284	-5.7
209.504	22.02
209.724	15.5
209.944	16.42
210.164	40.21
210.384	62.1
210.604	55.69
210.823	65.32
211.043	63.97
211.263	54.21
211.483	64.13
211.703	67.85
211.922	62.44
212.142	80.33
212.362	94.66
212.582	65.79
212.801	58.34
213.021	29.55
213.241	-2.49
213.461	-10.17
213.68	-34.84
213.9	-38.14
214.12	-43.98
214.339	-56.89
214.559	-1.51
214.779	1.11
214.998	10.81
215.218	34.94
215.438	38.56
215.657	35.78
215.877	49.45
216.096	61.59
216.316	44.48
216.535	48.33
216.755	33.05
216.974	30.32
217.194	18.36
217.413	30.94
217.633	40.78
217.852	30.71
218.072	35.69
218.291	19.23
218.511	24.83
218.73	11.59
218.95	19.01
219.169	19.49
219.389	31.46
219.608	30.63
219.827	39.12
220.047	21.75
220.266	0.36
220.485	-1.98
220.705	-15.17
220.924	-23.53
221.143	-0.84
221.363	-12.22
221.582	-13.56
221.801	4.42
222.021	1.73
222.24	6.29
222.459	27.39
222.678	33.42
222.897	21.61
223.117	35.14
223.336	44.11
223.555	56.88
223.774	50.21
223.993	71.36
224.213	64.79
224.432	53.75
224.651	52.75
224.87	44.42
225.089	-2.91
225.308	-4.94
225.527	-1.15
225.746	-11.63
225.965	11.66
226.184	37.79
226.404	36.23
226.623	24.72
226.842	47.87
227.061	50.48
227.28	51.79
227.499	48.32
227.718	55.25
227.936	39.44
228.155	43.52
228.374	33.96
228.593	34.8
228.812	28.72
229.031	26.34
229.25	12.27
229.469	12.29
229.688	6.86
229.907	5.84
230.125	-8.95
230.344	0.57
230.563	21.97
230.782	16.16
231.001	24.23
231.22	48.36
231.438	37.94
231.657	-6.15
231.876	30.1
232.095	19.76
232.313	4.57
232.532	31.08
232.751	64.16
232.969	52.53
233.188	72.89
233.407	73.48
233.625	59.58
233.844	54.73
234.063	53.56
234.281	46.21
234.5	47.42
234.719	45.52
234.937	48.58
235.156	37.83
235.374	41.78
235.593	36.01
235.811	26.89
236.03	19.5
236.249	18.38
236.467	29.09
236.686	41.44
236.904	42.19
237.123	40.21
237.341	49.75
237.559	35.21
237.778	21.5
237.996	21.32
238.215	3.13
238.433	16.94
238.652	19.1
238.87	26.08
239.088	38.86
239.307	27.63
239.525	33.27
239.743	35.74
239.962	44.5
240.18	25.51
240.398	60.91
240.617	38.77
240.835	34.93
241.053	33.23
241.271	31.49
241.49	18.83
241.708	27.79
241.926	19.51
242.144	13.77
242.363	10.49
242.581	17.37
242.799	15.5
243.017	28.58
243.235	21.83
243.453	21.06
243.672	16.11
243.89	-2.1
244.108	10.92
244.326	13.85
244.544	17.45
244.762	32.62
244.98	47.63
245.198	30.34
245.416	36.76
245.634	26.66
245.852	24.24
246.07	27.28
246.288	15.24
246.506	11.34
246.724	9.7
246.942	5.23
247.16	4.8
247.378	43.16
247.596	38.89
247.814	47.14
248.032	38.53
248.25	39.19
248.468	24.69
248.685	31.68
248.903	24.51
249.121	39.94
249.339	23.03
249.557	27.19
249.775	37.54
249.992	37.77
250.21	39.87
250.428	44.99
250.646	34.88
250.863	-11.51
251.081	-19.28
251.299	-35.68
251.517	-18.99
251.734	-7.03
251.952	3.5
252.17	20.47
252.387	43.98
252.605	45.31
252.823	51.4
253.04	59.9
253.258	67.97
253.475	70.22
253.693	76.37
253.911	88.92
254.128	96.68
254.346	79.72
254.563	69.58
254.781	39.98
254.998	30.18
255.216	27.56
255.433	-7.25
255.651	30.46
255.868	79.68
256.086	90.64
256.303	52.95
256.521	51.36
256.738	21.54
256.956	3.33
257.173	-24.89
257.39	-2.48
257.608	14.22
257.825	25.77
258.043	37.8
258.26	48.35
258.477	48.49
258.695	41.42
258.912	39.27
259.129	36.74
259.346	29.46
259.564	24.18
259.781	30.52
259.998	29.59
260.216	32.98
260.433	32.32
260.65	51.42
260.867	54.72
261.084	40.49
261.302	25.01
261.519	36.67
261.736	21.54
261.953	13.89
262.17	18.67
262.387	39.55
262.604	34.58
262.822	29.61
263.039	30.08
263.256	34.13
263.473	30.03
263.69	13.68
263.907	14.66
264.124	-7.9
264.341	-0.6
264.558	-30.47
264.775	-5.58
264.992	11.21
265.209	48.16
265.426	47.05
265.643	69.28
265.86	52.67
266.077	40.71
266.294	57.07
266.51	49.24
266.727	46.3
266.944	43.96
267.161	58.79
267.378	54.26
267.595	43.25
267.812	30.9
268.028	27.95
268.245	13.85
268.462	-4.48
268.679	-0.85
268.896	5.8
269.112	3.16
269.329	4.18
269.546	21.91
269.763	24.28
269.979	21.55
270.196	21.83
270.413	24.41
270.629	17
270.846	22.92
271.063	29.33
271.279	33.99
271.496	40.39
271.712	44.1
271.929	45.04
272.146	34.53
272.362	32.47
272.579	39.96
272.795	32.15
273.012	26.13
273.228	24.63
273.445	26.23
273.661	6.03
273.878	12.45
274.094	29.85
274.311	38.01
274.527	35.58
274.744	32.36
274.96	39.94
275.177	29.15
275.393	1.69
275.609	-7.84
275.826	-6.1
276.042	-23.34
276.259	-24.6
276.475	24.6
276.691	19.71
276.908	24.95
277.124	22.82
277.34	28.83
277.557	31.07
277.773	31.84
277.989	30.01
278.205	41.07
278.422	24.8
278.638	22.31
278.854	15.04
279.07	19.51
279.286	17.05
279.503	34.67
279.719	14.69
279.935	36.09
280.151	35.44
280.367	25.59
280.583	36.38
280.799	57.58
281.016	48.29
281.232	39.4
281.448	58.4
281.664	42.6
281.88	12.08
282.096	22.31
282.312	16.06
282.528	-5.42
282.744	-11.34
282.96	23.63
283.176	4.47
283.392	8.09
283.608	1.81
283.824	9.58
284.04	-1.7
284.256	10.41
284.471	13.72
284.687	25.3
284.903	34.76
285.119	29.25
285.335	10.89
285.551	12.68
285.767	-6.34
285.982	-31.22
286.198	-13.87
286.414	17.11
286.63	3.89
286.846	27.56
287.061	33.71
287.277	33.44
287.493	30.94
287.709	35.37
287.924	42.31
288.14	39.39
288.356	43.06
288.571	36.68
288.787	30.98
289.003	23.52
289.218	15.98
289.434	4.5
289.65	7.31
289.865	-7.33
290.081	-1.12
290.296	8.9
290.512	19.09
290.727	19.84
290.943	35.71
291.159	30.92
291.374	41.31
291.59	29.46
291.805	18.28
292.021	35.92
292.236	38.62
292.451	30.3
292.667	29.58
292.882	29.17
293.098	25.31
293.313	22.93
293.529	22.89
293.744	33.77
293.959	41.02
294.175	51.31
294.39	41.18
294.605	33.35
294.821	22.75
295.036	26.45
295.251	-7.04
295.467	-5.93
295.682	11.47
295.897	11.85
296.112	13.78
296.328	19.74
296.543	24.19
296.758	11.93
296.973	7.53
297.188	2.64
297.404	3.18
297.619	9.91
297.834	16.56
298.049	33.35
298.264	25.93
298.479	21.84
298.694	15.74
298.909	20.27
299.125	8.76
299.34	11.88
299.555	27.55
299.77	26.97
299.985	35.85
300.2	22.41
300.415	30.52
300.63	38.75
300.845	29.31
301.06	24.52
301.275	33.88
301.49	27.86
301.704	14.17
301.919	35.16
302.134	33.29
302.349	35.15
302.564	32.2
302.779	28.26
302.994	20.83
303.209	23.66
303.423	33.86
303.638	49.45
303.853	49.73
304.068	57.58
304.283	50.74
304.497	34.62
304.712	36.54
304.927	36.82
305.142	48.13
305.356	37.65
305.571	53.93
305.786	39.9
306	33.85
306.215	14.25
306.43	32.62
306.644	19.6
306.859	30.71
307.074	35.92
307.288	38.62
307.503	24.93
307.717	16.82
307.932	15.77
308.147	13.56
308.361	30.04
308.576	22.61
308.79	34.14
309.005	11.51
309.219	1.89
309.434	-21.5
309.648	-17.41
309.863	-25.56
310.077	9.8
310.292	21.4
310.506	26.59
310.72	30.43
310.935	34.52
311.149	15.71
311.364	22.26
311.578	40.44
311.792	45.72
312.007	34.49
312.221	40.05
312.435	32.18
312.649	4.33
312.864	-2.04
313.078	-2.07
313.292	7.01
313.507	5.1
313.721	6.54
313.935	5.19
314.149	13.03
314.363	0.37
314.578	-4.03
314.792	3.81
315.006	11.52
315.22	3.53
315.434	9.28
315.648	28.6
315.862	28.74
316.077	48.95
316.291	76.5
316.505	70.45
316.719	67.58
316.933	61.91
317.147	35.19
317.361	19.09
317.575	22.73
317.789	19.9
318.003	22.17
318.217	47.27
318.431	51.05
318.645	47.68
318.859	40.02
319.073	33.35
319.287	17.72
319.5	18.66
319.714	22.11
319.928	25.85
320.142	33.88
320.356	47.02
320.57	51.79
320.784	48.13
320.997	52.99
321.211	46.04
321.425	41.06
321.639	39.39
321.853	36.42
322.066	35.79
322.28	37.7
322.494	38.55
322.707	29.97
322.921	24.23
323.135	22.25
323.349	30.74
323.562	24.39
323.776	28.66
323.989	35.31
324.203	34.6
324.417	28.97
324.63	30.27
324.844	41.54
325.057	52.38
325.271	35.35
325.485	23.34
325.698	33.22
325.912	27.75
326.125	16.9
326.339	21.74
326.552	27.63
326.766	28.21
326.979	27.45
327.193	32.98
327.406	41.38
327.619	41.46
327.833	25
328.046	20.38
328.26	8.94
328.473	11.37
328.686	11.07
328.9	11.28
329.113	4.36
329.326	20.52
329.54	19.34
329.753	22.48
329.966	39.15
330.179	40.84
330.393	39.7
330.606	42.31
330.819	18.64
331.032	10.81
331.246	16.56
331.459	18.52
331.672	-0.25
331.885	19.8
332.098	20.09
332.311	13.64
332.525	17.86
332.738	13.05
332.951	9.81
333.164	7.54
333.377	13.17
333.59	1.39
333.803	13.65
334.016	12.87
334.229	1.69
334.442	-6.29
334.655	-5.16
334.868	-10.32
335.081	-0.88
335.294	15.71
335.507	25.52
335.72	17.51
335.933	22.49
336.146	29.16
336.359	21.35
336.572	9.9
336.785	41.82
336.997	52.16
337.21	47.25
337.423	64.52
337.636	66.23
337.849	32.58
338.062	28.03
338.274	39.61
338.487	40.51
338.7	40.37
338.913	30.54
339.125	15.39
339.338	4.7
339.551	-12.85
339.763	1.64
339.976	25.33
340.189	18.51
340.402	10.62
340.614	7.67
340.827	12.23
341.039	1.43
341.252	17.62
341.465	29.52
341.677	16.23
341.89	-8.68
342.102	2.69
342.315	8.15
342.527	15.98
342.74	21.89
342.952	27.2
343.165	29.34
343.377	43.63
343.59	33.43
343.802	42.32
344.015	54.14
344.227	51.2
344.44	29.67
344.652	31.72
344.864	25.4
345.077	-5.85
345.289	-5.84
345.502	6.54
345.714	-20.87
345.926	-45.47
346.139	6.83
346.351	3.91
346.563	10.2
346.775	15.72
346.988	28.82
347.2	20.15
347.412	22.67
347.624	15.74
347.837	24.1
348.049	18.3
348.261	24.84
348.473	17.2
348.685	34.87
348.897	34.94
349.11	38.74
349.322	26.53
349.534	22.58
349.746	12.54
349.958	17.95
350.17	14.28
350.382	26.45
350.594	42.5
350.806	51.62
351.018	49.51
351.23	46.28
351.442	40.57
351.654	49.2
351.866	50.39
352.078	50.33
352.29	53.02
352.502	56.11
352.714	51
352.926	49.8
353.138	47.54
353.35	39.44
353.561	32.08
353.773	29.37
353.985	19.14
354.197	25.38
354.409	32.04
354.621	30.05
354.832	25.56
355.044	36
355.256	25.94
355.468	22.64
355.679	18.21
355.891	19.19
356.103	5.43
356.314	20.93
356.526	21.32
356.738	34.04
356.949	40.43
357.161	54.51
357.373	48.7
357.584	41.33
357.796	41.26
358.008	35.03
358.219	25.84
358.431	23.59
358.642	34.55
358.854	22.48
359.065	22.86
359.277	6.67
359.488	5.6
359.7	3.33
359.911	24.01
360.123	17.87
360.334	24.04
360.546	30.27
360.757	37.9
360.969	29.2
361.18	33.42
361.391	32.63
361.603	29.48
361.814	18.99
362.025	17.81
362.237	11.02
362.448	12.58
362.659	11.07
362.871	29.69
363.082	26.63
363.293	28.27
363.504	28.77
363.716	29.57
363.927	13.46
364.138	11
364.349	11.4
364.56	5.96
364.772	1.08
364.983	8.27
365.194	26.52
365.405	36.73
365.616	39.63
365.827	37.07
366.038	40.85
366.25	30.56
366.461	32.82
366.672	40.64
366.883	41.58
367.094	31.42
367.305	29.83
367.516	31.85
367.727	28.73
367.938	36.33
368.149	36.16
368.36	43.05
368.571	33.98
368.781	25.98
368.992	20
369.203	12.24
369.414	8.73
369.625	-5.75
369.836	-8.64
370.047	-0.76
370.258	7.84
370.468	5.77
370.679	14.28
370.89	15.36
371.101	13.27
371.312	8.83
371.522	15.97
371.733	22.03
371.944	22.66
372.155	34.02
372.365	31.21
372.576	31.64
372.787	26.46
372.997	27.21
373.208	16.31
373.419	24.32
373.629	9.04
373.84	0.67
374.05	19.92
374.261	27.19
374.472	27.3
374.682	30.37
374.893	32.31
375.103	25.49
375.314	13.85
375.524	18.8
375.735	18.18
375.945	7.84
376.156	11.7
376.366	22.25
376.577	2.48
376.787	4.86
376.997	12.24
377.208	5.16
377.418	-0.37
377.629	6.94
377.839	5.08
378.049	13.89
378.26	24.27
378.47	27.73
378.68	28.47
378.89	27.81
379.101	14.5
379.311	8.5
379.521	7.96
379.732	15.33
379.942	29.73
380.152	30.77
380.362	18.2
380.572	14.87
380.783	11.64
380.993	6.35
381.203	11.13
381.413	10.56
381.623	16.45
381.833	13.45
382.043	11.3
382.253	12.36
382.463	22.15
382.674	24.14
382.884	29.86
383.094	30.34
383.304	27.98
383.514	27.17
383.724	21.56
383.934	22.02
384.144	18.81
384.353	21.12
384.563	17.38
384.773	20.14
384.983	14.64
385.193	22.51
385.403	22.9
385.613	25.45
385.823	19.02
386.033	19.47
386.242	10.53
386.452	8.33
386.662	7.87
386.872	17.31
387.082	13.98
387.291	19.12
387.501	19.95
387.711	15.88
387.921	10.19
388.13	12.65
388.34	9.36
388.55	8.01
388.759	6.09
388.969	11.53
389.179	14.58
389.388	15.77
389.598	13.5
389.807	18.83
390.017	13.6
390.227	7.05
390.436	10.49
390.646	11.84
390.855	11.08
391.065	11.59
391.274	14.15
391.484	11.42
391.693	11.88
391.903	10.67
392.112	9.65
392.322	8.87
392.531	6.87
392.74	7.03
392.95	4.45
393.159	3.64
393.369	5.38
393.578	5.96
393.787	5.47
393.997	7.32
394.206	8.7
394.415	6.33
394.625	6.4
394.834	5.61
395.043	4.55
395.252	4.66
395.462	5.4
395.671	4.41
395.88	4.99
396.089	4.83
396.298	4.08
396.508	3
396.717	3.05
396.926	2.59
397.135	2.57
397.344	2.23
397.553	3.48
397.762	4.05
397.971	4.02
398.181	4.28
398.39	4.86
398.599	3.98
398.808	3.41
399.017	4.03
399.226	4.33
399.435	3.85
399.644	4.66
399.853	5.49
400.062	5.13
400.27	5.01
400.479	5.09
400.688	5.06
400.897	4.64
401.106	4.5
401.315	4.47
401.524	4.67
401.733	4.11
401.941	3.51
402.15	3.25
402.359	3.13
402.568	3.13
402.777	3.25
402.985	3.42
403.194	3.75
403.403	3.58
403.612	3.39
403.82	3.11
404.029	3.33
404.238	3.28
404.446	3.49
404.655	3.29
404.864	3.57
405.072	3.52
405.281	3.6
405.489	3.49
405.698	3.64
405.906	3.69
406.115	3.72
406.324	3.52
406.532	3.4
406.741	3.51
406.949	3.56
407.158	3.57
407.366	3.47
407.574	3.51
407.783	3.36
407.991	3.2
408.2	3.1
408.408	3.3
408.617	3.37
408.825	3.43
409.033	3.46
409.242	3.48
409.45	3.37
409.658	3.39
409.867	3.37
410.075	3.3
410.283	3.22
410.491	3.14
410.7	3.27
410.908	3.25
411.116	3.45
411.324	3.5
411.533	3.59
411.741	3.48
411.949	3.59
412.157	3.35
412.365	3.49
412.573	3.52
412.781	3.39
412.99	3.23
413.198	3.29
413.406	3.19
413.614	3.14
413.822	3.13
414.03	3.21
414.238	3.25
414.446	3.23
414.654	3.3
414.862	3.34
415.07	3.41
415.278	3.57
415.486	3.48
415.694	3.42
415.902	3.24
416.109	3.06
416.317	2.98
416.525	3.04
416.733	2.97
416.941	3.11
417.149	3.07
417.357	3.01
417.564	3.04
417.772	3.13
417.98	3.3
418.188	3.34
418.395	3.3
418.603	3.29
418.811	3.24
419.019	3.02
419.226	3.2
419.434	3.2
419.642	3.08
419.849	2.98
420.057	2.89
420.265	2.83
420.472	2.69
420.68	2.78
420.887	2.92
421.095	3.04
421.302	2.86
421.51	3
421.717	2.9
421.925	3.02
422.132	3.09
422.34	3.15
422.547	3.02
422.755	3.09
422.962	2.92
423.17	2.77
423.377	2.68
423.585	2.71
423.792	2.61
423.999	2.68
424.207	2.66
424.414	2.8
424.621	2.84
424.829	2.86
425.036	2.82
425.243	2.93
425.451	2.93
425.658	2.75
425.865	2.82
426.072	2.74
426.28	2.74
426.487	2.8
426.694	2.87
426.901	2.87
427.108	2.96
427.315	2.93
427.523	2.95
427.73	2.86
427.937	2.81
428.144	2.76
428.351	2.79
428.558	2.66
428.765	2.73
428.972	2.83
429.179	2.71
429.386	2.62
429.593	2.59
429.8	2.61
430.007	2.41
430.214	2.56
430.421	2.66
430.628	2.6
430.835	2.53
431.042	2.62
431.249	2.67
431.456	2.67
431.662	2.72
431.869	2.96
432.076	2.99
432.283	2.85
432.49	2.72
432.697	2.79
432.903	2.54
433.11	2.38
433.317	2.42
433.524	2.56
433.73	2.36
433.937	2.53
434.144	2.69
434.35	2.72
434.557	2.67
434.764	2.7
434.97	2.61
435.177	2.63
435.384	2.58
435.59	2.7
435.797	2.75
436.003	2.79
436.21	2.79
436.416	2.77
436.623	2.68
436.829	2.75
437.036	2.81
437.242	2.77
437.449	2.89
437.655	2.82
437.862	2.7
438.068	2.68
438.275	2.6
438.481	2.56
438.687	2.52
438.894	2.51
439.1	2.3
439.307	2.31
439.513	2.26
439.719	2.32
439.926	2.43
440.132	2.57
440.338	2.64
440.544	2.53
440.751	2.45
440.957	2.33
441.163	2.26
441.369	2.38
441.575	2.49
441.782	2.55
441.988	2.6
442.194	2.66
442.4	2.51
442.606	2.54
442.812	2.58
443.018	2.61
443.224	2.6
443.431	2.61
443.637	2.49
443.843	2.4
444.049	2.34
444.255	2.31
444.461	2.25
444.667	2.38
444.873	2.35
445.079	2.39
445.284	2.35
445.49	2.43
445.696	2.38
445.902	2.45
446.108	2.5
446.314	2.59
446.52	2.58
446.726	2.6
446.931	2.59
447.137	2.58
447.343	2.61
447.549	2.58
447.755	2.58
447.96	2.63
448.166	2.66
448.372	2.64
448.578	2.76
448.783	2.75
448.989	2.73
449.195	2.66
449.4	2.7
449.606	2.51
449.812	2.55
450.017	2.57
450.223	2.6
450.428	2.55
450.634	2.67
450.84	2.66
451.045	2.68
451.251	2.7
451.456	2.68
451.662	2.69
451.867	2.71
452.073	2.62
452.278	2.6
452.483	2.55
452.689	2.44
452.894	2.54
453.1	2.62
453.305	2.64
453.51	2.75
453.716	2.8
453.921	2.68
454.127	2.64
454.332	2.59
454.537	2.59
454.742	2.56
454.948	2.52
455.153	2.52
455.358	2.53
455.563	2.56
455.769	2.56
455.974	2.54
456.179	2.49
456.384	2.35
456.589	2.2
456.795	2.23
457	2.31
457.205	2.36
457.41	2.47
457.615	2.45
457.82	2.47
458.025	2.42
458.23	2.4
458.435	2.35
458.64	2.42
458.845	2.35
459.05	2.34
459.255	2.33
459.46	2.4
459.665	2.48
459.87	2.55
460.075	2.51
460.28	2.62
460.485	2.61
460.69	2.54
460.895	2.5
461.099	2.53
461.304	2.43
461.509	2.49
461.714	2.55
461.919	2.58
462.123	2.62
462.328	2.61
462.533	2.65
462.738	2.64
462.942	2.59
463.147	2.61
463.352	2.76
463.556	2.65
463.761	2.61
463.966	2.62
464.17	2.59
464.375	2.53
464.58	2.58
464.784	2.62
464.989	2.58
465.193	2.59
465.398	2.53
465.602	2.56
465.807	2.54
466.011	2.59
466.216	2.49
466.42	2.48
466.625	2.49
466.829	2.47
467.034	2.49
467.238	2.6
467.443	2.6
467.647	2.59
467.851	2.54
468.056	2.49
468.26	2.51
468.464	2.51
468.669	2.48
468.873	2.52
