Data from Ofra_PS_Phys_8HS24_Reflection_3.txt Node
Date: Tue Jul 20 20:39:18 EDT 2021
User: USUARIO
Spectrometer: FLMT01687
Trigger mode: 0
Integration Time (sec): 1.042999E0
Scans to average: 2
Electric dark correction enabled: true
Nonlinearity correction enabled: false
Boxcar width: 2
XAxis mode: Wavelengths
Number of Pixels in Spectrum: 3648
>>>>>Begin Spectral Data<<<<<
179.494	-1.41
179.716	21.33
179.937	41.8
180.158	30.12
180.38	44.21
180.601	32.78
180.823	59.11
181.044	28.07
181.265	-246.07
181.486	-29.81
181.708	-95.63
181.929	41.13
182.15	-70.3
182.372	-4.45
182.593	83.19
182.814	53.61
183.035	34.96
183.257	-16.11
183.478	-317.56
183.699	-307.04
183.92	-128.57
184.141	-195.33
184.363	-38.93
184.584	40.33
184.805	36.32
185.026	40.72
185.247	20.91
185.468	3.61
185.689	22.01
185.91	26.05
186.132	-19.91
186.353	-20.51
186.574	-5.65
186.795	-28.65
187.016	-24.58
187.237	-5.01
187.458	-0.79
187.679	13.68
187.9	18.27
188.121	18.43
188.342	44.67
188.563	38.86
188.784	25.11
189.005	13.76
189.226	25.09
189.447	24.41
189.667	21.44
189.888	17.58
190.109	51.96
190.33	22.82
190.551	-0.88
190.772	-26.48
190.993	-19.35
191.214	-62.22
191.434	-30.19
191.655	-18.33
191.876	-8.53
192.097	19.41
192.318	33.58
192.538	27.38
192.759	21.87
192.98	22.04
193.201	7.74
193.421	10.72
193.642	15.45
193.863	16.07
194.083	26.06
194.304	37.77
194.525	33.44
194.745	47.31
194.966	39.82
195.187	24.56
195.407	-2.62
195.628	-9.35
195.848	-43.69
196.069	-4.48
196.29	7.5
196.51	7.44
196.731	14.3
196.951	15.93
197.172	3.75
197.392	3.99
197.613	16.33
197.833	17.3
198.054	21.96
198.274	23.43
198.495	3.85
198.715	-11.02
198.936	-17.83
199.156	-9.54
199.377	7.11
199.597	16.18
199.817	19.04
200.038	18.28
200.258	17.21
200.479	13.11
200.699	27.15
200.919	21.77
201.14	32.28
201.36	54.59
201.58	173.61
201.801	113.25
202.021	59.84
202.241	42.4
202.461	34.46
202.682	22.88
202.902	-14.33
203.122	-5.99
203.342	-16.68
203.563	-29.3
203.783	-21.11
204.003	10.76
204.223	25.11
204.443	29.63
204.663	18.87
204.884	9.27
205.104	2.02
205.324	-10.79
205.544	-9.77
205.764	-8.35
205.984	1.74
206.204	-8.16
206.424	17.01
206.644	8.48
206.864	14.65
207.084	4.82
207.304	17.68
207.525	-10.09
207.745	3.02
207.964	2.12
208.184	25.39
208.404	32.99
208.624	41.44
208.844	37.09
209.064	26.45
209.284	3.64
209.504	-2.47
209.724	15.05
209.944	-5.38
210.164	20.35
210.384	27.23
210.604	33.68
210.823	14.06
211.043	25.28
211.263	5.67
211.483	-10.08
211.703	-38.18
211.922	-42.37
212.142	-45.94
212.362	-39.3
212.582	-15.47
212.801	-21.8
213.021	-13.04
213.241	-42.07
213.461	-30.05
213.68	-80.2
213.9	-61.17
214.12	-89.57
214.339	-63.05
214.559	-30.88
214.779	-12.14
214.998	-1.06
215.218	3.18
215.438	-4.55
215.657	8.28
215.877	10.41
216.096	15.28
216.316	17.69
216.535	28.66
216.755	-3.39
216.974	-8.55
217.194	-33.13
217.413	-23.43
217.633	-33.33
217.852	-14.59
218.072	-15.55
218.291	-7.01
218.511	2.3
218.73	-0.14
218.95	8.68
219.169	13.13
219.389	14.79
219.608	9.98
219.827	24.22
220.047	10.28
220.266	-10.55
220.485	-3.47
220.705	-18.4
220.924	-29.17
221.143	-32.36
221.363	-36.16
221.582	-50.2
221.801	-38.23
222.021	-40.97
222.24	-30.21
222.459	-19.26
222.678	-18.51
222.897	-27.54
223.117	-41.59
223.336	-40.6
223.555	-24.24
223.774	-20.96
223.993	20.89
224.213	32.53
224.432	26.35
224.651	33.45
224.87	35.77
225.089	12.57
225.308	7.41
225.527	6.72
225.746	-13.59
225.965	7.18
226.184	3.63
226.404	-8.22
226.623	-9.2
226.842	10.59
227.061	-9.53
227.28	-12.89
227.499	-13.58
227.718	-4.57
227.936	-0.15
228.155	-1.68
228.374	10.7
228.593	15.35
228.812	11.71
229.031	19.45
229.25	12.73
229.469	-1.89
229.688	-15.14
229.907	-6.13
230.125	-13.61
230.344	5.72
230.563	33.68
230.782	42.76
231.001	49.54
231.22	50.02
231.438	27.15
231.657	1.1
231.876	9.84
232.095	-7.91
232.313	-21.2
232.532	-18.31
232.751	10.53
232.969	-5.44
233.188	31.5
233.407	64.53
233.625	52.44
233.844	40.99
234.063	49
234.281	34.48
234.5	25.56
234.719	30.61
234.937	41.04
235.156	24.06
235.374	16.97
235.593	19.8
235.811	6.96
236.03	3.46
236.249	-8.04
236.467	-2.34
236.686	-10.59
236.904	8.33
237.123	-13.43
237.341	-11.12
237.559	-1.51
237.778	-1.88
237.996	-36.05
238.215	-29.68
238.433	-4.35
238.652	-15.42
238.87	-19.9
239.088	1.26
239.307	-1.12
239.525	-1.65
239.743	-8.8
239.962	-0.54
240.18	-1.44
240.398	4.96
240.617	-13.15
240.835	-6.98
241.053	-4
241.271	2.11
241.49	3.37
241.708	16.53
241.926	9.81
242.144	14.14
242.363	3.55
242.581	10.52
242.799	13.07
243.017	16.25
243.235	12.25
243.453	12.27
243.672	9.08
243.89	0.84
244.108	2.92
244.326	3.42
244.544	13.42
244.762	13.51
244.98	19.47
245.198	20.38
245.416	10.85
245.634	14.22
245.852	11.4
246.07	20.44
246.288	22.78
246.506	34.29
246.724	12.97
246.942	7.94
247.16	-16.36
247.378	-12.32
247.596	-6.19
247.814	24.53
248.032	25.18
248.25	20.29
248.468	2.57
248.685	-9.34
248.903	-54
249.121	-34.77
249.339	-12.69
249.557	2.83
249.775	11.96
249.992	17.99
250.21	21.52
250.428	3.43
250.646	-3.51
250.863	-64.09
251.081	-66.06
251.299	-85.13
251.517	-53.86
251.734	-49.35
251.952	-33.59
252.17	-12.42
252.387	5.47
252.605	16.95
252.823	23.34
253.04	21.6
253.258	15.73
253.475	15.95
253.693	11.59
253.911	3.31
254.128	-45.45
254.346	-7.99
254.563	7.44
254.781	-10.7
254.998	22.14
255.216	40.1
255.433	21.67
255.651	19.3
255.868	28.47
256.086	-4.7
256.303	24.23
256.521	12.36
256.738	-7.46
256.956	-23.26
257.173	-40.28
257.39	-34.59
257.608	-9.21
257.825	3.51
258.043	32.02
258.26	39.67
258.477	45.62
258.695	36.61
258.912	47.38
259.129	49.29
259.346	32.19
259.564	30.02
259.781	52.29
259.998	35.94
260.216	16.08
260.433	34.84
260.65	23.56
260.867	17.78
261.084	12.23
261.302	9.73
261.519	-2.82
261.736	14.1
261.953	-0.15
262.17	-5.19
262.387	9.75
262.604	17.74
262.822	13.2
263.039	11.25
263.256	10.9
263.473	-6.07
263.69	-7.76
263.907	11.39
264.124	7.67
264.341	9.84
264.558	4.85
264.775	-37.72
264.992	-29.95
265.209	22.27
265.426	22.04
265.643	24.4
265.86	48.82
266.077	34.37
266.294	30.84
266.51	27.06
266.727	33.99
266.944	17.22
267.161	0.39
267.378	-19.9
267.595	-6.19
267.812	-24.99
268.028	-23.04
268.245	-14.68
268.462	-15.81
268.679	-40.78
268.896	-19.38
269.112	-12.12
269.329	-15.53
269.546	-15.13
269.763	6
269.979	-9.97
270.196	-19.82
270.413	-5.7
270.629	-13.96
270.846	-16.99
271.063	5.17
271.279	15.15
271.496	17.3
271.712	26
271.929	22.4
272.146	-2.03
272.362	-6.75
272.579	1.89
272.795	17.22
273.012	8.7
273.228	9.69
273.445	1.07
273.661	-16.29
273.878	-26.58
274.094	9.14
274.311	18.16
274.527	21.68
274.744	29.32
274.96	21.79
275.177	18.06
275.393	10.88
275.609	2.66
275.826	-8.03
276.042	-2.78
276.259	-10.15
276.475	-14.45
276.691	1.26
276.908	25.98
277.124	25.31
277.34	14.23
277.557	20.67
277.773	12.72
277.989	1.95
278.205	8.75
278.422	7.99
278.638	13
278.854	18.12
279.07	15.34
279.286	5.79
279.503	16.12
279.719	-6.68
279.935	7.98
280.151	7.16
280.367	9.57
280.583	17.9
280.799	38.21
281.016	19.82
281.232	39.06
281.448	35.86
281.664	25.55
281.88	14.32
282.096	23.76
282.312	-13.63
282.528	8.57
282.744	5.26
282.96	8.6
283.176	-13.24
283.392	0.46
283.608	-18.59
283.824	-10.11
284.04	-11.24
284.256	2.24
284.471	-0.84
284.687	0.89
284.903	5.47
285.119	11.97
285.335	15.17
285.551	7.94
285.767	6.72
285.982	-5.29
286.198	2.78
286.414	0.58
286.63	11.61
286.846	5.18
287.061	5.72
287.277	-14.95
287.493	-6.53
287.709	-18.08
287.924	1.27
288.14	18.5
288.356	30.72
288.571	33.88
288.787	45.74
289.003	45.16
289.218	29.16
289.434	27.25
289.65	34.33
289.865	32.18
290.081	27.62
290.296	31.13
290.512	20.34
290.727	14.08
290.943	12.11
291.159	5.51
291.374	10.86
291.59	25.93
291.805	24.39
292.021	34.48
292.236	35.49
292.451	35.96
292.667	34.1
292.882	24.12
293.098	11.4
293.313	18.92
293.529	12.7
293.744	6.74
293.959	8.15
294.175	21.95
294.39	-8.72
294.605	-6.63
294.821	1.55
295.036	0.04
295.251	-34.99
295.467	-44.12
295.682	-44.54
295.897	-43.31
296.112	-44.71
296.328	-32.67
296.543	-4.67
296.758	-11.26
296.973	-13
297.188	5.52
297.404	11.89
297.619	9.28
297.834	19.39
298.049	38.82
298.264	27.08
298.479	24.99
298.694	32.44
298.909	42.83
299.125	18.54
299.34	12.74
299.555	27.98
299.77	22.44
299.985	22.6
300.2	20.49
300.415	27.25
300.63	21.19
300.845	10.11
301.06	11.26
301.275	24.76
301.49	27.07
301.704	29.44
301.919	34.35
302.134	23.89
302.349	18.31
302.564	9.64
302.779	8.34
302.994	-0.13
303.209	-9.84
303.423	-10.23
303.638	0.84
303.853	6.56
304.068	11.2
304.283	26.65
304.497	21.29
304.712	10.93
304.927	-0.12
305.142	-7.41
305.356	-14.75
305.571	-0.91
305.786	-3.81
306	0.19
306.215	-5.66
306.43	14.44
306.644	15.89
306.859	35.58
307.074	31.29
307.288	43.02
307.503	27.55
307.717	21.4
307.932	13.74
308.147	18.96
308.361	30.74
308.576	33.08
308.79	37.85
309.005	9.53
309.219	12.43
309.434	-11.68
309.648	4.02
309.863	-8.72
310.077	11.88
310.292	1.85
310.506	3.83
310.72	-5.68
310.935	12.48
311.149	4.81
311.364	15.18
311.578	25.25
311.792	24.99
312.007	11.6
312.221	22.43
312.435	10.22
312.649	6.82
312.864	-13.03
313.078	-4.99
313.292	-3.7
313.507	0.47
313.721	-4.7
313.935	11.22
314.149	11.39
314.363	2.24
314.578	1.32
314.792	1.66
315.006	-3.57
315.22	-33.99
315.434	-21.17
315.648	-9.62
315.862	-6.41
316.077	8.63
316.291	45.25
316.505	23.19
316.719	31.41
316.933	20.1
317.147	5.39
317.361	-4.15
317.575	10.34
317.789	-6.67
318.003	-9.92
318.217	6.5
318.431	19.23
318.645	18.22
318.859	6.93
319.073	5.73
319.287	-0.99
319.5	-21.09
319.714	-25.16
319.928	-11.36
320.142	-10.59
320.356	7.69
320.57	21.8
320.784	24.04
320.997	25.75
321.211	29.9
321.425	22.07
321.639	28.46
321.853	24.78
322.066	26.08
322.28	33.57
322.494	41.19
322.707	36.91
322.921	28.31
323.135	20.87
323.349	8.14
323.562	-12.75
323.776	-12.82
323.989	16.71
324.203	21.35
324.417	27.31
324.63	34.73
324.844	38.03
325.057	33.54
325.271	38.04
325.485	18.67
325.698	17.95
325.912	15.81
326.125	5.9
326.339	-3.31
326.552	9.64
326.766	15.29
326.979	23.74
327.193	25.37
327.406	33.5
327.619	28.13
327.833	4.98
328.046	-15.83
328.26	-28.08
328.473	-14.88
328.686	-22.57
328.9	3.55
329.113	8.63
329.326	23.81
329.54	0.96
329.753	6.97
329.966	-1.98
330.179	3.31
330.393	9.43
330.606	16.2
330.819	17.81
331.032	29.09
331.246	40.26
331.459	36.45
331.672	30.47
331.885	35.68
332.098	30.96
332.311	22.39
332.525	24.95
332.738	35.04
332.951	31.33
333.164	44.26
333.377	46.79
333.59	38.41
333.803	35.83
334.016	26.76
334.229	-0.99
334.442	-13.76
334.655	-16.82
334.868	-27.51
335.081	-22.83
335.294	3.93
335.507	10.85
335.72	14.1
335.933	17.04
336.146	27.36
336.359	8.83
336.572	7.59
336.785	14.57
336.997	15.34
337.21	13.35
337.423	42.89
337.636	22.07
337.849	19.18
338.062	28.29
338.274	38.11
338.487	32.78
338.7	30.7
338.913	22.06
339.125	6.91
339.338	-13.22
339.551	-28.73
339.763	1.71
339.976	6.84
340.189	9.41
340.402	25.63
340.614	18.96
340.827	12.52
341.039	22.05
341.252	14.81
341.465	-4.2
341.677	0.76
341.89	-23.22
342.102	-19.43
342.315	11.22
342.527	27.22
342.74	17.61
342.952	27.63
343.165	14.01
343.377	20.47
343.59	18.53
343.802	29.91
344.015	26.58
344.227	37.42
344.44	16.49
344.652	13.86
344.864	7.35
345.077	-1.79
345.289	9.55
345.502	10.87
345.714	-5.28
345.926	-5.87
346.139	13.14
346.351	-3.9
346.563	18.02
346.775	22.43
346.988	23.14
347.2	14.13
347.412	9.11
347.624	1.77
347.837	2.4
348.049	-20.91
348.261	-8.24
348.473	-40.07
348.685	-28.01
348.897	-17.24
349.11	4.55
349.322	6.94
349.534	21.79
349.746	6.43
349.958	2.5
350.17	1.75
350.382	-5.76
350.594	-5.55
350.806	12.58
351.018	24.02
351.23	21.2
351.442	26.91
351.654	21.06
351.866	23.85
352.078	11.18
352.29	13.96
352.502	4.6
352.714	6.94
352.926	8.74
353.138	-2.1
353.35	-9.94
353.561	-8.9
353.773	-10.37
353.985	-6.19
354.197	5.63
354.409	18.17
354.621	27.22
354.832	17.69
355.044	14.07
355.256	21.82
355.468	9.63
355.679	3.65
355.891	14.76
356.103	10.11
356.314	9.92
356.526	20.42
356.738	13.74
356.949	12.79
357.161	25.18
357.373	19.81
357.584	13.73
357.796	16.72
358.008	25.47
358.219	15.8
358.431	17
358.642	17.57
358.854	15.48
359.065	1.66
359.277	-6.1
359.488	15.56
359.7	20.19
359.911	38.16
360.123	41.69
360.334	40.23
360.546	52.81
360.757	51.74
360.969	43.74
361.18	44.34
361.391	49.62
361.603	24.77
361.814	14.73
362.025	15.31
362.237	9.75
362.448	5.75
362.659	-4.78
362.871	1.7
363.082	-11.02
363.293	-17.51
363.504	-22.43
363.716	-1.21
363.927	-1.74
364.138	12.27
364.349	17.1
364.56	9.75
364.772	9.69
364.983	12.49
365.194	6.1
365.405	-13.72
365.616	13.61
365.827	-0.37
366.038	-11.7
366.25	-12.82
366.461	10.57
366.672	0.55
366.883	-5.97
367.094	8.64
367.305	10.87
367.516	9.17
367.727	1.59
367.938	16.65
368.149	8.78
368.36	7.53
368.571	17.47
368.781	13.69
368.992	11.26
369.203	16.81
369.414	13.86
369.625	-15.94
369.836	-11.7
370.047	-10.06
370.258	-6.42
370.468	-3.92
370.679	11.71
370.89	9.05
371.101	14.2
371.312	5.03
371.522	-0.91
371.733	5.79
371.944	14.13
372.155	15.37
372.365	16.43
372.576	22.58
372.787	10.96
372.997	12.92
373.208	1.99
373.419	-1.03
373.629	-6.85
373.84	-10.34
374.05	-22.7
374.261	-3.62
374.472	1.99
374.682	10.41
374.893	12.25
375.103	11.51
375.314	6.91
375.524	14.06
375.735	7.4
375.945	1.18
376.156	6.24
376.366	2.84
376.577	-20.96
376.787	-20.45
376.997	2.43
377.208	1.29
377.418	-2.53
377.629	8.36
377.839	2.07
378.049	4.43
378.26	10.82
378.47	16.74
378.68	17.15
378.89	26.16
379.101	-7.61
379.311	-10.49
379.521	-11.56
379.732	-13.47
379.942	6.9
380.152	14.9
380.362	7.05
380.572	6.99
380.783	14.7
380.993	13.06
381.203	16.07
381.413	10.04
381.623	20.56
381.833	15.3
382.043	10.21
382.253	10.81
382.463	26.27
382.674	26.04
382.884	21.75
383.094	12.36
383.304	5.74
383.514	1.97
383.724	-6.05
383.934	-5.22
384.144	0.92
384.353	9.21
384.563	3.09
384.773	11.43
384.983	10.56
385.193	13.38
385.403	11.84
385.613	14.06
385.823	3.14
386.033	9.68
386.242	-1.76
386.452	-2.53
386.662	-1.1
386.872	1.43
387.082	-7.7
387.291	2.69
387.501	5.17
387.711	4.99
387.921	9.47
388.13	15.98
388.34	8.32
388.55	7.33
388.759	0.88
388.969	-0.7
389.179	-2.57
389.388	-2.35
389.598	-4.28
389.807	5.62
390.017	0.74
390.227	-4.05
390.436	3.78
390.646	6.46
390.855	3.58
391.065	4.18
391.274	7.04
391.484	5.84
391.693	5.78
391.903	7.46
392.112	8.18
392.322	5.25
392.531	4.83
392.74	2.9
392.95	0.06
393.159	-0.63
393.369	2.74
393.578	1.8
393.787	2.59
393.997	3.73
394.206	4.77
394.415	3.94
394.625	3.96
394.834	4
395.043	4.06
395.252	4.91
395.462	4.41
395.671	3.87
395.88	3.81
396.089	2.32
396.298	1.81
396.508	3.16
396.717	3.6
396.926	4.25
397.135	4.23
397.344	4.31
397.553	4.34
397.762	5.07
397.971	4.85
398.181	4.91
398.39	4.66
398.599	3.82
398.808	2.76
399.017	2.87
399.226	3.91
399.435	3.48
399.644	3.95
399.853	4.35
400.062	4.32
400.27	4.11
400.479	4.54
400.688	4.41
400.897	4.64
401.106	4.64
401.315	4.44
401.524	4.51
401.733	4.29
401.941	3.74
402.15	3.42
402.359	3.38
402.568	3.64
402.777	3.64
402.985	3.56
403.194	3.8
403.403	3.99
403.612	3.67
403.82	3.48
404.029	3.73
404.238	3.89
404.446	3.87
404.655	3.62
404.864	3.9
405.072	3.77
405.281	3.77
405.489	3.66
405.698	3.95
405.906	3.91
406.115	4.21
406.324	4.07
406.532	4
406.741	3.98
406.949	4.1
407.158	3.99
407.366	3.88
407.574	3.79
407.783	3.84
407.991	3.71
408.2	3.73
408.408	3.76
408.617	3.85
408.825	3.71
409.033	3.98
409.242	3.92
409.45	3.91
409.658	3.89
409.867	3.93
410.075	3.73
410.283	3.67
410.491	3.7
410.7	3.89
410.908	3.87
411.116	3.91
411.324	3.93
411.533	3.97
411.741	3.82
411.949	4.04
412.157	3.86
412.365	3.99
412.573	3.98
412.781	3.96
412.99	3.75
413.198	3.87
413.406	3.7
413.614	3.74
413.822	3.8
414.03	3.8
414.238	3.65
414.446	3.71
414.654	3.7
414.862	3.58
415.07	3.6
415.278	3.7
415.486	3.63
415.694	3.48
415.902	3.46
416.109	3.31
416.317	3.15
416.525	3.25
416.733	3.15
416.941	3.26
417.149	3.38
417.357	3.59
417.564	3.46
417.772	3.62
417.98	3.6
418.188	3.53
418.395	3.47
418.603	3.58
418.811	3.54
419.019	3.39
419.226	3.55
419.434	3.5
419.642	3.17
419.849	3.08
420.057	3.09
420.265	3.12
420.472	3.18
420.68	3.4
420.887	3.47
421.095	3.6
421.302	3.29
421.51	3.16
421.717	3.05
421.925	3.19
422.132	3.04
422.34	3.1
422.547	3.1
422.755	3.34
422.962	3.21
423.17	3.24
423.377	3.27
423.585	3.3
423.792	2.93
423.999	2.87
424.207	2.83
424.414	2.85
424.621	2.74
424.829	2.75
425.036	2.74
425.243	2.82
425.451	2.8
425.658	2.79
425.865	2.95
426.072	3
426.28	3.18
426.487	3.26
426.694	3.27
426.901	3.2
427.108	3.18
427.315	2.95
427.523	2.94
427.73	3.05
427.937	3.08
428.144	2.95
428.351	3.04
428.558	3.03
428.765	2.93
428.972	2.93
429.179	2.85
429.386	2.76
429.593	2.8
429.8	2.82
430.007	2.89
430.214	3.13
430.421	3.14
430.628	3.18
430.835	3.19
431.042	3.1
431.249	3.28
431.456	3.37
431.662	3.35
431.869	3.43
432.076	3.68
432.283	3.53
432.49	3.48
432.697	3.3
432.903	3.25
433.11	3.04
433.317	3.02
433.524	3.12
433.73	3.23
433.937	3.26
434.144	3.26
434.35	3.14
434.557	3.18
434.764	3.06
434.97	2.97
435.177	2.99
435.384	3.08
435.59	3.05
435.797	3.17
436.003	3.33
436.21	3.41
436.416	3.3
436.623	3.21
436.829	3.24
437.036	3.2
437.242	3.19
437.449	3.47
437.655	3.52
437.862	3.53
438.068	3.55
438.275	3.47
438.481	3.32
438.687	3.24
438.894	3.14
439.1	3.1
439.307	3.24
439.513	3.36
439.719	3.43
439.926	3.55
440.132	3.58
440.338	3.51
440.544	3.46
440.751	3.42
440.957	3.27
441.163	3.29
441.369	3.39
441.575	3.43
441.782	3.48
441.988	3.58
442.194	3.53
442.4	3.44
442.606	3.34
442.812	3.33
443.018	3.32
443.224	3.29
443.431	3.36
443.637	3.39
443.843	3.47
444.049	3.46
444.255	3.54
444.461	3.49
444.667	3.55
444.873	3.55
445.079	3.61
445.284	3.58
445.49	3.65
445.696	3.66
445.902	3.58
446.108	3.68
446.314	3.76
446.52	3.7
446.726	3.66
446.931	3.78
447.137	3.69
447.343	3.66
447.549	3.69
447.755	3.66
447.96	3.64
448.166	3.59
448.372	3.61
448.578	3.6
448.783	3.69
448.989	3.61
449.195	3.64
449.4	3.66
449.606	3.61
449.812	3.56
450.017	3.51
450.223	3.51
450.428	3.52
450.634	3.56
450.84	3.6
451.045	3.65
451.251	3.63
451.456	3.55
451.662	3.53
451.867	3.63
452.073	3.76
452.278	3.77
452.483	3.86
452.689	3.89
452.894	3.83
453.1	3.72
453.305	3.8
453.51	3.76
453.716	3.75
453.921	3.76
454.127	3.82
454.332	3.78
454.537	3.79
454.742	3.84
454.948	3.77
455.153	3.8
455.358	3.88
455.563	3.91
455.769	3.86
455.974	3.94
456.179	3.88
456.384	3.7
456.589	3.59
456.795	3.57
457	3.5
457.205	3.54
457.41	3.66
457.615	3.79
457.82	3.79
458.025	3.73
458.23	3.69
458.435	3.69
458.64	3.64
458.845	3.77
459.05	3.83
459.255	3.87
459.46	3.89
459.665	3.96
459.87	3.84
460.075	3.83
460.28	3.82
460.485	3.78
460.69	3.83
460.895	3.78
461.099	3.87
461.304	3.86
461.509	3.88
461.714	3.74
461.919	3.88
462.123	3.91
462.328	3.9
462.533	3.96
462.738	4.01
462.942	3.97
463.147	3.95
463.352	4.02
463.556	3.89
463.761	3.86
463.966	3.84
464.17	3.86
464.375	3.8
464.58	3.92
464.784	3.97
464.989	3.95
465.193	3.95
465.398	4.06
465.602	4.06
465.807	4.06
466.011	4.14
466.216	4.06
466.42	3.96
466.625	4.01
466.829	3.98
467.034	4.02
467.238	4.15
467.443	4.15
467.647	4.06
467.851	4.02
468.056	4
468.26	3.97
468.464	4.02
