Data from Ofra_PS_Phys_6CX18_Reflection_1.txt Node
Date: Tue Jul 20 20:41:00 EDT 2021
User: USUARIO
Spectrometer: FLMT01687
Trigger mode: 0
Integration Time (sec): 1.042999E0
Scans to average: 2
Electric dark correction enabled: true
Nonlinearity correction enabled: false
Boxcar width: 2
XAxis mode: Wavelengths
Number of Pixels in Spectrum: 3648
>>>>>Begin Spectral Data<<<<<
179.494	-55.4
179.716	-28.44
179.937	-46.03
180.158	-46.31
180.38	9.38
180.601	5.82
180.823	10.11
181.044	83.74
181.265	-758.8
181.486	-128.05
181.708	-198.84
181.929	-96.35
182.15	139.27
182.372	51.24
182.593	135.76
182.814	94.68
183.035	78.45
183.257	45.84
183.478	-5.53
183.699	-173.41
183.92	-26.74
184.141	-111.94
184.363	-80.96
184.584	-16.28
184.805	28.97
185.026	39.16
185.247	-2.63
185.468	2.33
185.689	29.59
185.91	19.21
186.132	-43.98
186.353	1.65
186.574	9.85
186.795	-10.97
187.016	3.21
187.237	38.91
187.458	54.58
187.679	40.06
187.9	59.35
188.121	55.98
188.342	46.06
188.563	38.62
188.784	37.36
189.005	33.43
189.226	54.35
189.447	65.55
189.667	51.87
189.888	58.5
190.109	54.71
190.33	37.41
190.551	15.14
190.772	26.03
190.993	43.53
191.214	6.9
191.434	19.9
191.655	39.4
191.876	47.19
192.097	46.33
192.318	65.82
192.538	56.49
192.759	57.18
192.98	40.61
193.201	39.46
193.421	37.2
193.642	52.42
193.863	44.86
194.083	41.57
194.304	32.47
194.525	37.08
194.745	46.36
194.966	38.95
195.187	62.26
195.407	59.54
195.628	27.06
195.848	14.53
196.069	30.83
196.29	26.43
196.51	34.37
196.731	52.9
196.951	38.51
197.172	23.98
197.392	16.49
197.613	23.32
197.833	27.26
198.054	31.02
198.274	48.94
198.495	55.81
198.715	51.86
198.936	57.59
199.156	52.81
199.377	28.75
199.597	36.25
199.817	41.28
200.038	30
200.258	49.31
200.479	45.84
200.699	39.06
200.919	42.77
201.14	49.05
201.36	18.57
201.58	15.66
201.801	37.95
202.021	11.94
202.241	6.74
202.461	4.38
202.682	9.17
202.902	17.76
203.122	43.6
203.342	38.95
203.563	35.67
203.783	66.33
204.003	26.01
204.223	20.38
204.443	19.52
204.663	27.18
204.884	17.76
205.104	39.33
205.324	62.05
205.544	75.64
205.764	73.07
205.984	62.87
206.204	52
206.424	33.64
206.644	20.46
206.864	32.76
207.084	25.16
207.304	32.04
207.525	23.38
207.745	24.49
207.964	6.77
208.184	28.91
208.404	34.72
208.624	42.2
208.844	36.4
209.064	60.12
209.284	48.82
209.504	52.29
209.724	57.93
209.944	84.38
210.164	43.5
210.384	52.02
210.604	65.67
210.823	58.82
211.043	56.11
211.263	53.91
211.483	49.25
211.703	31.18
211.922	23.63
212.142	42.92
212.362	72.63
212.582	44.65
212.801	39.2
213.021	36.18
213.241	11.31
213.461	-5.93
213.68	-12.89
213.9	-31.6
214.12	-35.8
214.339	-38.94
214.559	-0.45
214.779	17.55
214.998	46.33
215.218	42.31
215.438	40.61
215.657	43.59
215.877	38.47
216.096	48.3
216.316	38.88
216.535	57.46
216.755	51.73
216.974	49.77
217.194	22.99
217.413	42.91
217.633	36.31
217.852	44.24
218.072	49.33
218.291	37.04
218.511	38.27
218.73	22.53
218.95	13.96
219.169	8.62
219.389	21.34
219.608	11.07
219.827	28.72
220.047	28.88
220.266	18.29
220.485	18.58
220.705	28.44
220.924	28.27
221.143	33.53
221.363	33.17
221.582	36.82
221.801	30.38
222.021	19.38
222.24	20.14
222.459	37.49
222.678	26.96
222.897	31.45
223.117	32.42
223.336	47.11
223.555	64.69
223.774	53.52
223.993	65.25
224.213	57.19
224.432	44.21
224.651	34.01
224.87	38.27
225.089	4.34
225.308	13.52
225.527	34.68
225.746	40.74
225.965	54.21
226.184	60
226.404	60.31
226.623	56.21
226.842	43.29
227.061	41.26
227.28	16.17
227.499	13.68
227.718	-1.12
227.936	6.71
228.155	1.18
228.374	20.35
228.593	32.75
228.812	36.8
229.031	37.4
229.25	31.63
229.469	30.13
229.688	13.27
229.907	3.93
230.125	-3.43
230.344	7.92
230.563	20.57
230.782	14.55
231.001	28.76
231.22	21.45
231.438	-3.07
231.657	-53.46
231.876	-5.54
232.095	-22.71
232.313	-8.93
232.532	14.58
232.751	47.85
232.969	19.04
233.188	25.85
233.407	38.36
233.625	35.38
233.844	23.99
234.063	31.3
234.281	28.71
234.5	10.33
234.719	16.18
234.937	24.63
235.156	13.28
235.374	32.49
235.593	46.29
235.811	42.93
236.03	48.02
236.249	70.65
236.467	58.69
236.686	58.05
236.904	57.12
237.123	38.03
237.341	35.9
237.559	41.31
237.778	48.29
237.996	27
238.215	34.71
238.433	28.32
238.652	9.19
238.87	-9.84
239.088	4.67
239.307	7.24
239.525	-8.29
239.743	3.2
239.962	35.63
240.18	32.85
240.398	13.12
240.617	32.33
240.835	19.41
241.053	19.21
241.271	28.52
241.49	36.3
241.708	40.68
241.926	53.91
242.144	54.45
242.363	46.32
242.581	57.02
242.799	38.41
243.017	34.19
243.235	23.33
243.453	25.3
243.672	20.83
243.89	25.58
244.108	18.69
244.326	16.87
244.544	10.32
244.762	8.74
244.98	7.5
245.198	21.67
245.416	17.99
245.634	23.32
245.852	27.89
246.07	27.07
246.288	8.26
246.506	24.39
246.724	11.56
246.942	4.08
247.16	16.75
247.378	41.14
247.596	24.97
247.814	26.34
248.032	33.55
248.25	35.36
248.468	19.19
248.685	21.11
248.903	32.53
249.121	48.61
249.339	36.94
249.557	67.2
249.775	68.46
249.992	58.25
250.21	44.5
250.428	46.76
250.646	11.26
250.863	-31.86
251.081	-31.42
251.299	-29.43
251.517	-6.28
251.734	8.39
251.952	-2.74
252.17	17.3
252.387	40.02
252.605	22.94
252.823	32.64
253.04	54.91
253.258	53.78
253.475	36.2
253.693	51.21
253.911	52.35
254.128	13.12
254.346	16.46
254.563	28.71
254.781	-10.73
254.998	7.01
255.216	24.61
255.433	9.52
255.651	47.18
255.868	81.47
256.086	76.79
256.303	36.76
256.521	41.11
256.738	16.79
256.956	11.59
257.173	-3.96
257.39	16.92
257.608	25.94
257.825	38.55
258.043	51.74
258.26	58.17
258.477	61.36
258.695	52.29
258.912	65.28
259.129	54.95
259.346	52.34
259.564	43.13
259.781	43.22
259.998	18.4
260.216	36.95
260.433	31
260.65	48.86
260.867	54.39
261.084	52.53
261.302	32.03
261.519	48.9
261.736	28.93
261.953	38.95
262.17	40.43
262.387	56.64
262.604	37.17
262.822	50.71
263.039	49.92
263.256	39.85
263.473	21.35
263.69	15.07
263.907	13.68
264.124	-5.12
264.341	20.7
264.558	4.52
264.775	4.48
264.992	-7.45
265.209	21.07
265.426	7.11
265.643	34.84
265.86	31.97
266.077	34.96
266.294	25.02
266.51	20.16
266.727	20.81
266.944	33.2
267.161	31.19
267.378	35.14
267.595	37.08
267.812	20.02
268.028	4.03
268.245	10.77
268.462	10.01
268.679	8.16
268.896	6.92
269.112	22.05
269.329	20.27
269.546	21.31
269.763	21.92
269.979	30.76
270.196	28.23
270.413	23.73
270.629	11.71
270.846	20.82
271.063	30.57
271.279	23.43
271.496	27.46
271.712	36.32
271.929	42.92
272.146	24.19
272.362	23.84
272.579	22.71
272.795	23.61
273.012	12.38
273.228	10.6
273.445	24.05
273.661	15.92
273.878	16.77
274.094	32.74
274.311	43.5
274.527	37.86
274.744	42.48
274.96	46.71
275.177	49.65
275.393	42.18
275.609	24.75
275.826	26.09
276.042	29.3
276.259	8.79
276.475	27.44
276.691	56.87
276.908	38.1
277.124	24.93
277.34	25.34
277.557	8.06
277.773	0.16
277.989	20.64
278.205	26.17
278.422	11.78
278.638	25.33
278.854	18.11
279.07	8.49
279.286	11.53
279.503	29.63
279.719	20.02
279.935	47.41
280.151	46.52
280.367	32.83
280.583	38.72
280.799	51.28
281.016	40.01
281.232	35.67
281.448	33.68
281.664	41.85
281.88	30.22
282.096	28.06
282.312	21.66
282.528	53.15
282.744	40.51
282.96	43
283.176	27.92
283.392	21.57
283.608	6.38
283.824	9.64
284.04	15.58
284.256	20.02
284.471	38.81
284.687	45.28
284.903	50.43
285.119	56.79
285.335	75.58
285.551	51.07
285.767	27.45
285.982	20.11
286.198	20.1
286.414	12.35
286.63	23.9
286.846	56.58
287.061	51.21
287.277	30.56
287.493	19.81
287.709	13.85
287.924	-1.39
288.14	14.83
288.356	30.25
288.571	22.52
288.787	30.71
289.003	37.08
289.218	30.85
289.434	20.64
289.65	50.69
289.865	31.97
290.081	39.03
290.296	42.84
290.512	52.35
290.727	43.87
290.943	53.47
291.159	41
291.374	35.69
291.59	16.32
291.805	20.9
292.021	32.96
292.236	52.97
292.451	54.94
292.667	79.28
292.882	65.28
293.098	66.51
293.313	47.39
293.529	53.85
293.744	45.43
293.959	58.28
294.175	58.56
294.39	57.09
294.605	45.09
294.821	39.75
295.036	28.33
295.251	7.04
295.467	8.03
295.682	3.21
295.897	10.67
296.112	6.85
296.328	9.84
296.543	19.89
296.758	19.99
296.973	13.8
297.188	23.68
297.404	21.97
297.619	18.32
297.834	21.52
298.049	30.03
298.264	14.24
298.479	27.2
298.694	26.71
298.909	36.73
299.125	36.28
299.34	40.44
299.555	42.37
299.77	42.08
299.985	37.79
300.2	33.75
300.415	40.43
300.63	39.17
300.845	31.85
301.06	31.93
301.275	25.64
301.49	21.78
301.704	17.38
301.919	32.24
302.134	30.9
302.349	29.12
302.564	34.25
302.779	33.57
302.994	19.22
303.209	29.92
303.423	40.96
303.638	51.9
303.853	38.88
304.068	47.74
304.283	43.09
304.497	24.58
304.712	7.18
304.927	9.28
305.142	7.97
305.356	-6.51
305.571	17.24
305.786	10.38
306	21.05
306.215	21.35
306.43	20.96
306.644	7.59
306.859	16.79
307.074	14.81
307.288	18.92
307.503	29.34
307.717	22.33
307.932	31.3
308.147	18.3
308.361	22.38
308.576	12.44
308.79	21.11
309.005	9.72
309.219	17.12
309.434	4.18
309.648	23.08
309.863	12.7
310.077	21.4
310.292	29.57
310.506	42.16
310.72	40.25
310.935	50.7
311.149	40.49
311.364	29.8
311.578	42.31
311.792	40.17
312.007	36.66
312.221	56.66
312.435	56.26
312.649	33.13
312.864	38.49
313.078	31.37
313.292	24
313.507	23.6
313.721	24.79
313.935	0.02
314.149	17.22
314.363	15.75
314.578	-3.33
314.792	2.53
315.006	27.14
315.22	5.38
315.434	-6.11
315.648	13.73
315.862	0.71
316.077	-11.72
316.291	1.64
316.505	27.97
316.719	56.08
316.933	59.87
317.147	45.26
317.361	31.89
317.575	22.79
317.789	-19.44
318.003	-50.95
318.217	-38.83
318.431	-5.62
318.645	15.93
318.859	17.1
319.073	31.28
319.287	29.15
319.5	23.76
319.714	9.39
319.928	33.6
320.142	35.53
320.356	50.89
320.57	44.29
320.784	36.1
320.997	22.44
321.211	18.21
321.425	8.24
321.639	11.15
321.853	30.8
322.066	33.3
322.28	40.95
322.494	43.88
322.707	38.05
322.921	30.84
323.135	35.32
323.349	27.19
323.562	21.14
323.776	21.94
323.989	35.22
324.203	38.15
324.417	39.08
324.63	48.9
324.844	57.83
325.057	62.88
325.271	41.58
325.485	45.07
325.698	27.18
325.912	30.1
326.125	31.45
326.339	35.02
326.552	38.21
326.766	49.92
326.979	24.25
327.193	10.6
327.406	13.37
327.619	22.57
327.833	7.79
328.046	19.22
328.26	5.74
328.473	20.89
328.686	15.25
328.9	24.51
329.113	26.97
329.326	30.96
329.54	18.3
329.753	18.29
329.966	16.66
330.179	17.54
330.393	30.22
330.606	46.22
330.819	35.57
331.032	35.1
331.246	38.19
331.459	22.87
331.672	-20.82
331.885	0.22
332.098	9.48
332.311	3.31
332.525	34.26
332.738	54.09
332.951	51.11
333.164	67.13
333.377	65.69
333.59	32.31
333.803	23.45
334.016	34.11
334.229	17.44
334.442	5.74
334.655	14.34
334.868	11.24
335.081	0.2
335.294	10.94
335.507	14.49
335.72	27.23
335.933	25.1
336.146	29.94
336.359	31.54
336.572	39.57
336.785	42.84
336.997	47.8
337.21	63.13
337.423	82.89
337.636	77.53
337.849	56.39
338.062	74.31
338.274	50.62
338.487	43.15
338.7	44.87
338.913	43.4
339.125	29.02
339.338	23.03
339.551	16.99
339.763	25.44
339.976	28.51
340.189	16.85
340.402	27.34
340.614	21.29
340.827	5.76
341.039	19.52
341.252	28.49
341.465	26.19
341.677	13.05
341.89	26.73
342.102	14.28
342.315	15
342.527	32.6
342.74	36.87
342.952	24.06
343.165	20.5
343.377	30.49
343.59	20.8
343.802	25.04
344.015	29.04
344.227	28.03
344.44	14.37
344.652	10.26
344.864	8.28
345.077	-12.45
345.289	-4.19
345.502	-6.93
345.714	-30.88
345.926	-30.96
346.139	15.69
346.351	3.43
346.563	19.49
346.775	26.46
346.988	19.48
347.2	17.97
347.412	29.59
347.624	29.35
347.837	29.67
348.049	33.48
348.261	37.25
348.473	11.95
348.685	21.94
348.897	27.26
349.11	31.94
349.322	19.54
349.534	22.87
349.746	11.96
349.958	6.53
350.17	6.11
350.382	8.5
350.594	16.8
350.806	27.94
351.018	28.76
351.23	25.02
351.442	35.13
351.654	32.91
351.866	34.55
352.078	40.2
352.29	41.7
352.502	32.76
352.714	28.24
352.926	29.17
353.138	26.28
353.35	17.53
353.561	35.11
353.773	49.59
353.985	34.68
354.197	24.83
354.409	41.23
354.621	28.72
354.832	27.97
355.044	35.9
355.256	36.23
355.468	13.48
355.679	17.94
355.891	12.11
356.103	11.46
356.314	13.71
356.526	28.17
356.738	26.61
356.949	34.17
357.161	32.64
357.373	43.43
357.584	36.24
357.796	25.48
358.008	25.46
358.219	31.45
358.431	24.98
358.642	21.69
358.854	34.56
359.065	25.86
359.277	18.27
359.488	14.18
359.7	28.82
359.911	25.97
360.123	21.33
360.334	12.19
360.546	21.47
360.757	21.47
360.969	22.36
361.18	36.48
361.391	38.28
361.603	35.15
361.814	27.11
362.025	25.59
362.237	0.38
362.448	8.38
362.659	3.76
362.871	14.88
363.082	9.38
363.293	26.95
363.504	6.51
363.716	14.96
363.927	16.23
364.138	15.88
364.349	13.14
364.56	28.82
364.772	26.44
364.983	16.28
365.194	24.77
365.405	30.09
365.616	33.04
365.827	28.87
366.038	24.17
366.25	9.92
366.461	16.02
366.672	5.2
366.883	-2.41
367.094	13.82
367.305	20.37
367.516	17.08
367.727	31.27
367.938	32.68
368.149	26.4
368.36	27.3
368.571	24.58
368.781	12.52
368.992	4.12
369.203	7.78
369.414	-1.2
369.625	-5.19
369.836	5.22
370.047	21.83
370.258	18.7
370.468	29.52
370.679	31.9
370.89	32.9
371.101	29.76
371.312	30.16
371.522	17.22
371.733	15.58
371.944	19.12
372.155	19.8
372.365	23.16
372.576	35.23
372.787	30.14
372.997	26.36
373.208	27.86
373.419	37.15
373.629	29.76
373.84	28.89
374.05	26.88
374.261	18.17
374.472	12.29
374.682	14.79
374.893	23.1
375.103	17.55
375.314	25.47
375.524	24.73
375.735	25.47
375.945	21.98
376.156	28.38
376.366	25.72
376.577	14.2
376.787	11.01
376.997	9.25
377.208	11.29
377.418	10.83
377.629	13.82
377.839	13.62
378.049	23.32
378.26	20.38
378.47	12.49
378.68	14.52
378.89	19.76
379.101	0.96
379.311	1.2
379.521	17.57
379.732	14.39
379.942	18.93
380.152	22.27
380.362	18.03
380.572	13.55
380.783	13.91
380.993	9.72
381.203	12.89
381.413	8.78
381.623	4.4
381.833	7.25
382.043	0.43
382.253	-10.07
382.463	5.77
382.674	15.59
382.884	15.48
383.094	23.81
383.304	27.25
383.514	22.92
383.724	12.43
383.934	15.46
384.144	11.94
384.353	19.51
384.563	8.67
384.773	17.07
384.983	12.56
385.193	12.68
385.403	8.25
385.613	19.85
385.823	8.55
386.033	12.07
386.242	11.75
386.452	13.45
386.662	11.25
386.872	16.2
387.082	11.12
387.291	16.26
387.501	15.34
387.711	16.22
387.921	16.57
388.13	18.71
388.34	11.87
388.55	5.66
388.759	0.99
388.969	-3.71
389.179	-1.91
389.388	0.1
389.598	5.12
389.807	11.44
390.017	11.44
390.227	4.77
390.436	10.59
390.646	6.81
390.855	4.46
391.065	5.82
391.274	10.09
391.484	6.58
391.693	9.4
391.903	9.49
392.112	8.87
392.322	6.26
392.531	6.68
392.74	4.99
392.95	2.6
393.159	1.52
393.369	3.81
393.578	3.74
393.787	5.18
393.997	6.12
394.206	7.46
394.415	5.96
394.625	6.95
394.834	5.43
395.043	4.93
395.252	5.32
395.462	5.36
395.671	3.17
395.88	3.83
396.089	2.98
396.298	2.8
396.508	2.32
396.717	2.54
396.926	2.9
397.135	4.03
397.344	3.57
397.553	4.58
397.762	5.57
397.971	4.59
398.181	3.81
398.39	3.72
398.599	2.95
398.808	2.04
399.017	2.82
399.226	3.69
399.435	3.49
399.644	4.25
399.853	4.4
400.062	3.78
400.27	3.68
400.479	3.62
400.688	3.23
400.897	3.43
401.106	3.67
401.315	3.36
401.524	3.36
401.733	3.01
401.941	2.27
402.15	1.76
402.359	1.79
402.568	1.96
402.777	1.95
402.985	2.12
403.194	2.51
403.403	2.41
403.612	2.21
403.82	2.22
404.029	2.36
404.238	2.17
404.446	2.14
404.655	1.99
404.864	2.07
405.072	1.85
405.281	2.22
405.489	2.18
405.698	2.21
405.906	2.29
406.115	2.53
406.324	2.14
406.532	2.03
406.741	1.96
406.949	2.04
407.158	2.03
407.366	2.09
407.574	2.17
407.783	2.34
407.991	2.33
408.2	2.33
408.408	2.44
408.617	2.37
408.825	2.41
409.033	2.38
409.242	2.36
409.45	2.28
409.658	2.41
409.867	2.28
410.075	2.16
410.283	2.03
410.491	2
410.7	2.14
410.908	2.14
411.116	2.37
411.324	2.48
411.533	2.59
411.741	2.32
411.949	2.53
412.157	2.26
412.365	2.34
412.573	2.29
412.781	2.23
412.99	2.14
413.198	2.26
413.406	2.13
413.614	2.26
413.822	2.48
414.03	2.44
414.238	2.36
414.446	2.44
414.654	2.36
414.862	2.14
415.07	2.16
415.278	2.21
415.486	2.15
415.694	2.12
415.902	2.22
416.109	2.11
416.317	2.13
416.525	2.09
416.733	2.01
416.941	2.05
417.149	2.17
417.357	2.19
417.564	2.2
417.772	2.23
417.98	2.32
418.188	2.28
418.395	2.18
418.603	2.15
418.811	2.13
419.019	1.99
419.226	1.93
419.434	1.99
419.642	1.97
419.849	1.93
420.057	1.98
420.265	2.1
420.472	1.97
420.68	2.03
420.887	2.13
421.095	2.05
421.302	1.9
421.51	1.97
421.717	2.03
421.925	2.05
422.132	2.07
422.34	2.14
422.547	2.21
422.755	2.24
422.962	2.12
423.17	2.04
423.377	2.13
423.585	2.01
423.792	1.78
423.999	1.94
424.207	2.07
424.414	2.03
424.621	2.17
424.829	2.16
425.036	2.02
425.243	1.97
425.451	1.96
425.658	1.77
425.865	2.08
426.072	2.04
426.28	2.16
426.487	2.2
426.694	2.38
426.901	2.14
427.108	2.28
427.315	2.09
427.523	2.18
427.73	1.98
427.937	1.9
428.144	1.75
428.351	1.82
428.558	1.79
428.765	1.76
428.972	1.89
429.179	1.88
429.386	1.94
429.593	1.99
429.8	2.06
430.007	2.07
430.214	2.2
430.421	2.2
430.628	2.05
430.835	1.99
431.042	1.97
431.249	1.92
431.456	1.78
431.662	1.79
431.869	1.94
432.076	1.91
432.283	1.91
432.49	1.99
432.697	1.89
432.903	1.81
433.11	1.76
433.317	1.7
433.524	1.77
433.73	1.79
433.937	1.77
434.144	1.82
434.35	1.85
434.557	1.76
434.764	1.69
434.97	1.74
435.177	1.82
435.384	1.8
435.59	1.89
435.797	2.11
436.003	2.17
436.21	2.17
436.416	2.05
436.623	1.93
436.829	1.93
437.036	1.84
437.242	1.79
437.449	2.02
437.655	2.1
437.862	2.02
438.068	2.16
438.275	2.17
438.481	2.07
438.687	1.98
438.894	1.96
439.1	1.72
439.307	1.76
439.513	1.86
439.719	1.94
439.926	1.98
440.132	2.2
440.338	2.18
440.544	2.05
440.751	2.07
440.957	2.01
441.163	1.92
441.369	2.06
441.575	2.16
441.782	2.13
441.988	2.28
442.194	2.37
442.4	2.23
442.606	2.23
442.812	2.23
443.018	2.06
443.224	1.96
443.431	1.94
443.637	1.91
443.843	1.9
444.049	1.93
444.255	1.91
444.461	1.91
444.667	1.92
444.873	1.89
445.079	1.98
445.284	1.95
445.49	1.99
445.696	1.98
445.902	2.04
446.108	1.96
446.314	2.02
446.52	2.02
446.726	2
446.931	2.04
447.137	2.11
447.343	2.16
447.549	2.17
447.755	2.16
447.96	2.22
448.166	2.2
448.372	2.21
448.578	2.21
448.783	2.25
448.989	2.11
449.195	2.04
449.4	2.03
449.606	1.95
449.812	1.92
450.017	1.95
450.223	1.99
450.428	1.95
450.634	2.04
450.84	2.12
451.045	2.24
451.251	2.32
451.456	2.33
451.662	2.35
451.867	2.36
452.073	2.29
452.278	2.24
452.483	2.24
452.689	2.15
452.894	2.25
453.1	2.22
453.305	2.27
453.51	2.36
453.716	2.42
453.921	2.41
454.127	2.41
454.332	2.32
454.537	2.26
454.742	2.23
454.948	2.06
455.153	2.14
455.358	2.19
455.563	2.22
455.769	2.15
455.974	2.18
456.179	2.11
456.384	2.04
456.589	1.93
456.795	1.99
457	2.02
457.205	2.01
457.41	2
457.615	2.04
457.82	2.02
458.025	2.02
458.23	1.98
458.435	2.05
458.64	2.09
458.845	2.14
459.05	2.05
459.255	2.1
459.46	2.13
459.665	2.14
459.87	2.19
460.075	2.35
460.28	2.49
460.485	2.48
460.69	2.53
460.895	2.55
461.099	2.5
461.304	2.38
461.509	2.33
461.714	2.27
461.919	2.24
462.123	2.26
462.328	2.24
462.533	2.33
462.738	2.38
462.942	2.35
463.147	2.19
463.352	2.21
463.556	2.12
463.761	2.07
463.966	2.05
464.17	2.14
464.375	2.23
464.58	2.29
464.784	2.36
464.989	2.36
465.193	2.48
465.398	2.41
465.602	2.42
465.807	2.41
466.011	2.42
466.216	2.31
466.42	2.33
466.625	2.36
466.829	2.38
467.034	2.42
467.238	2.53
467.443	2.51
467.647	2.46
467.851	2.43
468.056	2.42
468.26	2.33
468.464	2.27
468.669	2.25
468.873	2.28
