Data from Ofra_PS_Phys_1GT43_Reflection_1.txt Node
Date: Tue Jul 20 17:52:23 EDT 2021
User: USUARIO
Spectrometer: FLMT01687
Trigger mode: 0
Integration Time (sec): 1.042999E0
Scans to average: 2
Electric dark correction enabled: true
Nonlinearity correction enabled: false
Boxcar width: 2
XAxis mode: Wavelengths
Number of Pixels in Spectrum: 3648
>>>>>Begin Spectral Data<<<<<
179.494	40.32
179.716	29.39
179.937	8.42
180.158	-426.09
180.38	-470.41
180.601	57.28
180.823	6.15
181.044	-273.2
181.265	-1676.74
181.486	-122.18
181.708	-38.68
181.929	-57.54
182.15	60.71
182.372	-277.46
182.593	-44.41
182.814	-23.48
183.035	2.22
183.257	36.02
183.478	25.32
183.699	47.5
183.92	51.54
184.141	36.66
184.363	25.26
184.584	51.46
184.805	60.34
185.026	73.38
185.247	88.62
185.468	86.99
185.689	69.93
185.91	62.06
186.132	48.64
186.353	35.79
186.574	56.53
186.795	89.65
187.016	98.66
187.237	79.66
187.458	39.83
187.679	22.57
187.9	8.26
188.121	-26.29
188.342	-175.95
188.563	77.38
188.784	66.62
189.005	44.35
189.226	44.52
189.447	71.83
189.667	59.92
189.888	67.85
190.109	86.45
190.33	105.81
190.551	102.63
190.772	95.82
190.993	74.96
191.214	92.45
191.434	72.49
191.655	58.04
191.876	44.27
192.097	59.22
192.318	31.63
192.538	53.42
192.759	84.64
192.98	83.84
193.201	92.24
193.421	74.64
193.642	84.73
193.863	63.92
194.083	82.11
194.304	40.87
194.525	48.36
194.745	41.13
194.966	55.3
195.187	37.46
195.407	65.16
195.628	70.2
195.848	82.15
196.069	71.67
196.29	59.62
196.51	56.47
196.731	54.43
196.951	37.03
197.172	37.06
197.392	45.6
197.613	45.27
197.833	45.68
198.054	52.98
198.274	47.6
198.495	45.02
198.715	54.52
198.936	60.39
199.156	56.19
199.377	60.07
199.597	81.44
199.817	81.9
200.038	61.12
200.258	59.61
200.479	52.27
200.699	39.73
200.919	31.64
201.14	72.91
201.36	86.97
201.58	120.35
201.801	87.3
202.021	122.2
202.241	47.58
202.461	45.77
202.682	31.03
202.902	56.5
203.122	25.68
203.342	55.81
203.563	48.85
203.783	54.17
204.003	29.7
204.223	42.08
204.443	29.3
204.663	-17.83
204.884	22.02
205.104	49.26
205.324	56.47
205.544	51.17
205.764	77.11
205.984	46.9
206.204	45.48
206.424	37.52
206.644	46.46
206.864	29.95
207.084	48.95
207.304	53.35
207.525	62.34
207.745	40.22
207.964	74.75
208.184	86.74
208.404	67.52
208.624	55.77
208.844	64.88
209.064	60.96
209.284	59.56
209.504	50.72
209.724	46.99
209.944	55.43
210.164	29.95
210.384	17.73
210.604	61.58
210.823	73.03
211.043	39.71
211.263	65.81
211.483	55.15
211.703	46.64
211.922	42.48
212.142	59.18
212.362	53.2
212.582	55.23
212.801	54.79
213.021	75.48
213.241	120.61
213.461	102.06
213.68	89.56
213.9	112.36
214.12	122.82
214.339	65.7
214.559	60.88
214.779	80.09
214.998	72.21
215.218	52.39
215.438	79.11
215.657	73.36
215.877	67.76
216.096	69.35
216.316	57.54
216.535	45.64
216.755	50
216.974	39.21
217.194	27.4
217.413	40.5
217.633	23.44
217.852	12.42
218.072	17.5
218.291	31.5
218.511	26.7
218.73	21.35
218.95	18.07
219.169	34.37
219.389	7.45
219.608	2.89
219.827	34.97
220.047	49.29
220.266	50
220.485	44.63
220.705	43.37
220.924	32.54
221.143	8.34
221.363	-19.11
221.582	18.06
221.801	20.23
222.021	19.14
222.24	19.7
222.459	42.52
222.678	-3.78
222.897	25.3
223.117	39.11
223.336	54.19
223.555	49.08
223.774	68.51
223.993	72.99
224.213	88.2
224.432	74.96
224.651	91.16
224.87	67.94
225.089	45.79
225.308	19.84
225.527	47.95
225.746	48.4
225.965	38.07
226.184	61.6
226.404	77.81
226.623	32.36
226.842	14.75
227.061	32.12
227.28	8.73
227.499	-4.49
227.718	26.16
227.936	28.64
228.155	41.08
228.374	38.63
228.593	44.78
228.812	35.28
229.031	49.8
229.25	28.51
229.469	47.81
229.688	55.99
229.907	58.46
230.125	47.95
230.344	62.71
230.563	44.65
230.782	47.45
231.001	40.53
231.22	60.9
231.438	49.16
231.657	44.28
231.876	40.13
232.095	41
232.313	52.66
232.532	51.13
232.751	66.24
232.969	76.25
233.188	85.26
233.407	61.21
233.625	74.82
233.844	67.08
234.063	48.72
234.281	50.54
234.5	42.75
234.719	54.66
234.937	59.13
235.156	86.86
235.374	69.61
235.593	87.78
235.811	73.68
236.03	52.52
236.249	-23.11
236.467	30.32
236.686	20.16
236.904	31.12
237.123	44.58
237.341	64.19
237.559	65.28
237.778	77.52
237.996	62.28
238.215	59.15
238.433	53.88
238.652	35.09
238.87	19.54
239.088	25.7
239.307	30.58
239.525	25.8
239.743	44.32
239.962	44.28
240.18	37.35
240.398	22.28
240.617	26.83
240.835	31.76
241.053	32.68
241.271	47.47
241.49	59.91
241.708	56.55
241.926	41.02
242.144	43.42
242.363	34.9
242.581	47.5
242.799	42.47
243.017	57.11
243.235	50
243.453	55.7
243.672	42.84
243.89	37.52
244.108	26.56
244.326	40.27
244.544	32.62
244.762	12.7
244.98	22.1
245.198	24.59
245.416	26.27
245.634	36.3
245.852	49.17
246.07	73.86
246.288	82.37
246.506	81.77
246.724	95.13
246.942	95.52
247.16	83.36
247.378	75.2
247.596	96.22
247.814	80.42
248.032	88.27
248.25	52.77
248.468	54.56
248.685	54.25
248.903	59.37
249.121	58.6
249.339	67.23
249.557	80.76
249.775	67.88
249.992	62.91
250.21	68.46
250.428	34.2
250.646	-2.34
250.863	26.37
251.081	11.21
251.299	23.8
251.517	41.68
251.734	75.98
251.952	52.62
252.17	92.32
252.387	42.49
252.605	29.61
252.823	32.47
253.04	33
253.258	27.5
253.475	33.63
253.693	58.62
253.911	66.83
254.128	87.98
254.346	78.15
254.563	69.03
254.781	60.98
254.998	49.89
255.216	38.83
255.433	33.11
255.651	45.12
255.868	42.09
256.086	37.22
256.303	31.59
256.521	37.54
256.738	18.46
256.956	19.32
257.173	2.75
257.39	-6
257.608	-41.76
257.825	16.35
258.043	24.81
258.26	42.16
258.477	71.86
258.695	77.94
258.912	62.23
259.129	64.54
259.346	66.83
259.564	61.11
259.781	64.58
259.998	62.84
260.216	63.36
260.433	50.91
260.65	53.24
260.867	55.03
261.084	60.35
261.302	47.19
261.519	54.96
261.736	5.91
261.953	3.81
262.17	-1.46
262.387	20.98
262.604	-22.15
262.822	13.02
263.039	-15.57
263.256	-19.57
263.473	-15.29
263.69	0.69
263.907	25.62
264.124	27.08
264.341	34.13
264.558	31.5
264.775	51.34
264.992	22.69
265.209	13.41
265.426	-2.8
265.643	0.75
265.86	-14.06
266.077	-12.27
266.294	12.39
266.51	40.15
266.727	51.65
266.944	69.22
267.161	63.12
267.378	60.48
267.595	40.9
267.812	36.91
268.028	24.49
268.245	32.71
268.462	15.99
268.679	1.62
268.896	3.14
269.112	9.46
269.329	9.74
269.546	11.93
269.763	36.2
269.979	51.07
270.196	71.7
270.413	61.99
270.629	54.46
270.846	56.2
271.063	42.51
271.279	38.05
271.496	49.23
271.712	65.65
271.929	54.96
272.146	58.89
272.362	52.23
272.579	41.66
272.795	17.07
273.012	31.04
273.228	41.7
273.445	36.76
273.661	51.1
273.878	53.93
274.094	48.85
274.311	31.36
274.527	34.39
274.744	14.72
274.96	20.74
275.177	19.14
275.393	20.73
275.609	20.49
275.826	43.62
276.042	34.75
276.259	35.34
276.475	48.95
276.691	53.11
276.908	40.45
277.124	51.25
277.34	36.2
277.557	26.26
277.773	20.04
277.989	13.93
278.205	7.81
278.422	35.48
278.638	32.23
278.854	31.11
279.07	42.18
279.286	49.2
279.503	34.79
279.719	42.13
279.935	35.02
280.151	54.38
280.367	44.7
280.583	41.08
280.799	53.86
281.016	40.46
281.232	21.87
281.448	1.96
281.664	23.69
281.88	4.59
282.096	10.57
282.312	24.08
282.528	48.98
282.744	44.77
282.96	61.24
283.176	60.5
283.392	49.82
283.608	36.76
283.824	29.04
284.04	23.57
284.256	28.76
284.471	12.63
284.687	31.81
284.903	48.95
285.119	55.26
285.335	42.57
285.551	80.98
285.767	62.87
285.982	76.85
286.198	72.57
286.414	56.07
286.63	43.59
286.846	50.77
287.061	29.14
287.277	38.61
287.493	46.01
287.709	55.16
287.924	73.77
288.14	103.95
288.356	88.45
288.571	88.33
288.787	81.34
289.003	70.93
289.218	75.41
289.434	67.93
289.65	63.77
289.865	44.77
290.081	61.43
290.296	45.27
290.512	51.98
290.727	54.24
290.943	53.24
291.159	29.91
291.374	-12.26
291.59	-18.8
291.805	-22.86
292.021	-7.79
292.236	34.75
292.451	44.26
292.667	58.07
292.882	65.87
293.098	67.31
293.313	66.34
293.529	90.06
293.744	67.99
293.959	32.87
294.175	9.85
294.39	-23.67
294.605	-19.27
294.821	-12.79
295.036	0.37
295.251	42.38
295.467	40.01
295.682	43.38
295.897	46.5
296.112	35.86
296.328	29.62
296.543	45.02
296.758	37.87
296.973	37.3
297.188	53.77
297.404	58.56
297.619	53.84
297.834	68.05
298.049	72.74
298.264	50.48
298.479	44.56
298.694	49.75
298.909	21.32
299.125	44.15
299.34	57.99
299.555	48.7
299.77	43.27
299.985	55.27
300.2	13.98
300.415	6.54
300.63	-5.83
300.845	8.86
301.06	32.82
301.275	33.36
301.49	30.54
301.704	35.89
301.919	37.03
302.134	23.9
302.349	26.38
302.564	25.89
302.779	30.94
302.994	40.04
303.209	29.79
303.423	40.01
303.638	39.02
303.853	44.52
304.068	40.58
304.283	55.12
304.497	28.84
304.712	31.09
304.927	26.85
305.142	15.37
305.356	22.96
305.571	26.82
305.786	33.83
306	41.17
306.215	45.39
306.43	32.4
306.644	38.39
306.859	42.3
307.074	27.98
307.288	37.09
307.503	50.51
307.717	44.45
307.932	29.26
308.147	37.59
308.361	36.25
308.576	43.96
308.79	48.57
309.005	46.42
309.219	45.51
309.434	23.72
309.648	-9.17
309.863	-15.95
310.077	1.18
310.292	4.58
310.506	16.75
310.72	35.93
310.935	46.16
311.149	48.21
311.364	38.74
311.578	41.63
311.792	29.09
312.007	31.24
312.221	20.51
312.435	37.7
312.649	29.36
312.864	48.55
313.078	54.38
313.292	55.57
313.507	41.46
313.721	61.07
313.935	57.72
314.149	53.99
314.363	59.17
314.578	64.05
314.792	38.2
315.006	32.42
315.22	36.6
315.434	45.29
315.648	40.81
315.862	54.98
316.077	49.3
316.291	25.05
316.505	0.07
316.719	0.06
316.933	-6.65
317.147	8.53
317.361	11.55
317.575	32.86
317.789	32.59
318.003	41.08
318.217	37.18
318.431	34.71
318.645	32.51
318.859	38.99
319.073	41.89
319.287	36.97
319.5	39.65
319.714	22.55
319.928	15.31
320.142	9.16
320.356	7.06
320.57	16.1
320.784	26.48
320.997	32.83
321.211	36.22
321.425	54.6
321.639	61.14
321.853	65.79
322.066	57.71
322.28	53.9
322.494	50.89
322.707	58.21
322.921	53.95
323.135	44.65
323.349	52
323.562	46.11
323.776	31.58
323.989	33.59
324.203	30.63
324.417	8.52
324.63	4.35
324.844	4.73
325.057	0.28
325.271	24.29
325.485	24.79
325.698	26.77
325.912	40.73
326.125	47.73
326.339	32.05
326.552	51.21
326.766	37.8
326.979	33.58
327.193	37.77
327.406	37.97
327.619	25.1
327.833	45.55
328.046	46.7
328.26	32.62
328.473	49.68
328.686	62.03
328.9	42.55
329.113	41.73
329.326	59
329.54	60.87
329.753	58.32
329.966	55.86
330.179	70.98
330.393	68.58
330.606	71.81
330.819	69.2
331.032	89.23
331.246	78.6
331.459	77.13
331.672	51.08
331.885	42.2
332.098	23.89
332.311	1.24
332.525	-6.52
332.738	-12.78
332.951	29.27
333.164	35.69
333.377	34.96
333.59	42.48
333.803	59.52
334.016	54.89
334.229	50
334.442	51.15
334.655	57.66
334.868	61
335.081	59.97
335.294	75.92
335.507	80.33
335.72	80.06
335.933	52.77
336.146	35.51
336.359	22.77
336.572	29.09
336.785	35.93
336.997	53.4
337.21	70.82
337.423	70.73
337.636	40.63
337.849	35.36
338.062	22.11
338.274	25.41
338.487	25.41
338.7	52.6
338.913	41.5
339.125	43.28
339.338	34.59
339.551	28.88
339.763	19.87
339.976	29.44
340.189	41.47
340.402	40.43
340.614	47.8
340.827	49.7
341.039	55.85
341.252	47.09
341.465	54.54
341.677	55.67
341.89	49.25
342.102	39.61
342.315	31.81
342.527	24.44
342.74	37.12
342.952	47.08
343.165	52.29
343.377	67.72
343.59	59.75
343.802	42.86
344.015	48.22
344.227	37.76
344.44	24.2
344.652	32.13
344.864	41.43
345.077	35.39
345.289	46.5
345.502	41.19
345.714	24.09
345.926	26.67
346.139	27.5
346.351	39.49
346.563	39.95
346.775	57.84
346.988	43.23
347.2	30.05
347.412	5.46
347.624	21.65
347.837	18
348.049	21.93
348.261	23.23
348.473	34.42
348.685	38.02
348.897	43.35
349.11	37.67
349.322	27.12
349.534	27.89
349.746	36.7
349.958	35.61
350.17	46.93
350.382	62.64
350.594	67.58
350.806	58.49
351.018	57.62
351.23	45.51
351.442	35.22
351.654	33.92
351.866	20.06
352.078	30.46
352.29	38.24
352.502	33.53
352.714	28.92
352.926	27.96
353.138	26.5
353.35	22.51
353.561	29.88
353.773	35.68
353.985	39.4
354.197	33.92
354.409	41.61
354.621	46.44
354.832	29.74
355.044	25.57
355.256	5.54
355.468	-15.02
355.679	-10.47
355.891	11.46
356.103	26.42
356.314	50.48
356.526	63.04
356.738	59.04
356.949	63.29
357.161	76.05
357.373	79.49
357.584	58.43
357.796	42.1
358.008	25.9
358.219	12.78
358.431	3.89
358.642	20.02
358.854	31.74
359.065	35.44
359.277	31.24
359.488	31.9
359.7	20.29
359.911	17.15
360.123	29.66
360.334	35.38
360.546	47.79
360.757	48.85
360.969	46.52
361.18	48.28
361.391	43.56
361.603	37.97
361.814	50.06
362.025	38.52
362.237	32.36
362.448	29.31
362.659	28.7
362.871	17.16
363.082	30.34
363.293	37
363.504	49.31
363.716	47.94
363.927	48.74
364.138	47.45
364.349	35.86
364.56	35.57
364.772	19.71
364.983	36.54
365.194	45.7
365.405	35.94
365.616	20.47
365.827	30.46
366.038	18.34
366.25	10.3
366.461	29.11
366.672	42
366.883	40.46
367.094	30.21
367.305	21.22
367.516	10.79
367.727	5.17
367.938	6.22
368.149	17.05
368.36	26.85
368.571	31.38
368.781	35.75
368.992	36.13
369.203	38.53
369.414	26.33
369.625	34.47
369.836	29.22
370.047	28.29
370.258	14.44
370.468	19.79
370.679	12.24
370.89	9.42
371.101	12.45
371.312	23.63
371.522	24.91
371.733	22.35
371.944	31.56
372.155	35.94
372.365	37.14
372.576	40.87
372.787	43.45
372.997	35.34
373.208	36.74
373.419	38.18
373.629	35.59
373.84	38.55
374.05	25.4
374.261	28.87
374.472	24.22
374.682	31.13
374.893	33.81
375.103	48.81
375.314	41.69
375.524	33.23
375.735	30
375.945	23.82
376.156	21.62
376.366	21.87
376.577	42.43
376.787	52.59
376.997	59.99
377.208	59.33
377.418	56.52
377.629	38.6
377.839	24.67
378.049	17.48
378.26	15.19
378.47	21.45
378.68	17.45
378.89	15.04
379.101	15.04
379.311	13.4
379.521	8.92
379.732	34.25
379.942	31.97
380.152	42.01
380.362	49.45
380.572	41.88
380.783	30.15
380.993	37.03
381.203	31.52
381.413	33.23
381.623	35.36
381.833	31.56
382.043	26.88
382.253	18.17
382.463	3.38
382.674	4.97
382.884	5.17
383.094	22.91
383.304	28.64
383.514	36.76
383.724	45.23
383.934	46.11
384.144	31.13
384.353	34.63
384.563	35.13
384.773	29.11
384.983	26.05
385.193	30.33
385.403	16.98
385.613	14.83
385.823	11.68
386.033	14.78
386.242	19.61
386.452	23.52
386.662	19.97
386.872	17.8
387.082	19.38
387.291	10.21
387.501	10.77
387.711	14.33
387.921	19.32
388.13	18.71
388.34	25.48
388.55	23.55
388.759	23.81
388.969	21.8
389.179	18.92
389.388	14.68
389.598	15
389.807	14.6
390.017	14.71
390.227	12.95
390.436	11.67
390.646	11.69
390.855	10.28
391.065	9.33
391.274	12.13
391.484	13.59
391.693	15.42
391.903	18.66
392.112	17.27
392.322	15.2
392.531	16.13
392.74	12.21
392.95	7.78
393.159	8.07
393.369	9.09
393.578	6.01
393.787	7.29
393.997	9.08
394.206	9.35
394.415	10.4
394.625	13.51
394.834	14.17
395.043	13.97
395.252	14.65
395.462	13.64
395.671	12.07
395.88	11.77
396.089	11.34
396.298	10.23
396.508	9.44
396.717	9.81
396.926	10.13
397.135	10.54
397.344	10.78
397.553	11.57
397.762	10.96
397.971	10.27
398.181	9.67
398.39	9.67
398.599	8.84
398.808	8.7
399.017	9.49
399.226	9.86
399.435	10.11
399.644	10.37
399.853	11.13
400.062	10.48
400.27	10.63
400.479	10.52
400.688	10.31
400.897	9.7
401.106	9.71
401.315	9.29
401.524	9.22
401.733	9.49
401.941	9.48
402.15	9.64
402.359	9.49
402.568	9.18
402.777	9.24
402.985	8.98
403.194	8.79
403.403	8.96
403.612	9.18
403.82	9.01
404.029	9.32
404.238	9.43
404.446	9.23
404.655	9.22
404.864	9.06
405.072	8.78
405.281	8.87
405.489	8.95
405.698	8.97
405.906	9.05
406.115	9.19
406.324	8.91
406.532	8.92
406.741	8.82
406.949	8.75
407.158	8.76
407.366	8.76
407.574	8.58
407.783	8.52
407.991	8.45
408.2	8.52
408.408	8.49
408.617	8.5
408.825	8.4
409.033	8.35
409.242	8.26
409.45	8.31
409.658	8.29
409.867	8.45
410.075	8.52
410.283	8.32
410.491	8.26
410.7	8.31
410.908	8.12
411.116	8.05
411.324	8.18
411.533	8.09
411.741	8.13
411.949	8.18
412.157	8.35
412.365	8.3
412.573	8.33
412.781	8.29
412.99	8.34
413.198	8.22
413.406	8.27
413.614	8.24
413.822	8.26
414.03	8.11
414.238	7.9
414.446	7.8
414.654	7.84
414.862	7.78
415.07	7.77
415.278	7.92
415.486	7.75
415.694	7.68
415.902	7.65
416.109	7.5
416.317	7.5
416.525	7.54
416.733	7.55
416.941	7.57
417.149	7.76
417.357	7.63
417.564	7.84
417.772	7.7
417.98	7.61
418.188	7.45
418.395	7.4
418.603	7.35
418.811	7.4
419.019	7.22
419.226	7.4
419.434	7.3
419.642	7.11
419.849	7.22
420.057	7.46
420.265	7.32
420.472	7.48
420.68	7.62
420.887	7.56
421.095	7.46
421.302	7.6
421.51	7.44
421.717	7.37
421.925	7.29
422.132	7.08
422.34	7
422.547	7.14
422.755	7.06
422.962	6.91
423.17	7.04
423.377	7
423.585	7.05
423.792	7.19
423.999	7.25
424.207	7.18
424.414	7.03
424.621	7.04
424.829	6.74
425.036	6.84
425.243	6.98
425.451	7.17
425.658	6.88
425.865	7.15
426.072	7.02
426.28	6.89
426.487	6.67
426.694	6.92
426.901	6.94
427.108	7.09
427.315	7.25
427.523	7.53
427.73	7.51
427.937	7.51
428.144	7.45
428.351	7.4
428.558	7.21
428.765	7.11
428.972	7.04
429.179	7.17
429.386	7.23
429.593	7.11
429.8	7.13
430.007	7.24
430.214	7.07
430.421	6.82
430.628	6.96
430.835	7.1
431.042	7.04
431.249	7.26
431.456	7.47
431.662	7.59
431.869	7.56
432.076	7.45
432.283	7.45
432.49	7.42
432.697	7.31
432.903	7.29
433.11	7.35
433.317	7.25
433.524	7.3
433.73	7.23
433.937	7.22
434.144	7.11
434.35	7.13
434.557	7.09
434.764	7.23
434.97	7.14
435.177	7.35
435.384	7.41
435.59	7.51
435.797	7.6
436.003	7.72
436.21	7.69
436.416	7.7
436.623	7.53
436.829	7.43
437.036	7.57
437.242	7.53
437.449	7.49
437.655	7.59
437.862	7.6
438.068	7.43
438.275	7.43
438.481	7.51
438.687	7.46
438.894	7.55
439.1	7.69
439.307	7.75
439.513	7.81
439.719	7.92
439.926	7.85
440.132	7.93
440.338	7.94
440.544	7.87
440.751	7.91
440.957	7.92
441.163	7.8
441.369	7.85
441.575	7.8
441.782	7.71
441.988	7.73
442.194	7.76
442.4	7.67
442.606	7.58
442.812	7.66
443.018	7.76
443.224	7.81
443.431	7.9
443.637	8.01
443.843	8.02
444.049	7.97
444.255	7.92
444.461	7.91
444.667	7.93
444.873	7.9
445.079	7.92
445.284	7.96
445.49	7.93
445.696	7.9
445.902	7.96
446.108	7.88
446.314	7.8
446.52	7.93
446.726	8.07
446.931	8.08
447.137	7.99
447.343	8.08
447.549	8.13
447.755	8.04
447.96	7.99
448.166	8.28
448.372	8.32
448.578	8.28
448.783	8.38
448.989	8.39
449.195	8.31
449.4	8.28
449.606	8.2
449.812	8.1
450.017	8.12
450.223	8.16
450.428	8.17
450.634	8.18
450.84	8.26
451.045	8.33
451.251	8.2
451.456	8.21
451.662	8.26
451.867	8.33
452.073	8.25
452.278	8.28
452.483	8.36
452.689	8.24
452.894	8.21
453.1	8.2
453.305	8.23
453.51	8.14
453.716	8.21
453.921	8.09
454.127	8.1
454.332	8.12
454.537	8.12
454.742	8.06
454.948	8.19
455.153	8.27
455.358	8.28
455.563	8.31
455.769	8.32
455.974	8.17
456.179	8.12
456.384	8.04
456.589	8.06
456.795	8.08
457	8.13
457.205	8.08
457.41	8.04
457.615	8.06
457.82	8.15
458.025	8.14
458.23	8.13
458.435	8.2
458.64	8.13
458.845	8.04
459.05	8.04
459.255	8.13
459.46	8.24
459.665	8.19
459.87	8.21
460.075	8.3
460.28	8.25
460.485	8.25
460.69	8.27
460.895	8.3
461.099	8.28
461.304	8.32
461.509	8.26
461.714	8.36
461.919	8.4
462.123	8.4
462.328	8.4
462.533	8.45
462.738	8.52
462.942	8.42
463.147	8.43
463.352	8.55
463.556	8.65
463.761	8.61
463.966	8.64
464.17	8.71
464.375	8.59
464.58	8.47
464.784	8.54
464.989	8.55
465.193	8.56
465.398	8.56
465.602	8.66
465.807	8.61
466.011	8.66
466.216	8.61
466.42	8.78
466.625	8.79
466.829	8.83
467.034	8.83
467.238	8.87
467.443	8.76
467.647	8.72
467.851	8.7
468.056	8.77
