Data from Ofra_PS_Phys_2GT31_Reflection_1.txt Node
Date: Tue Jul 20 14:41:22 EDT 2021
User: USUARIO
Spectrometer: FLMT01687
Trigger mode: 0
Integration Time (sec): 1.200000E0
Scans to average: 2
Electric dark correction enabled: true
Nonlinearity correction enabled: false
Boxcar width: 2
XAxis mode: Wavelengths
Number of Pixels in Spectrum: 3648
>>>>>Begin Spectral Data<<<<<
179.494	-64.26
179.716	-251.52
179.937	881.03
180.158	132.16
180.38	111.03
180.601	147.46
180.823	583.54
181.044	448.7
181.265	-433.03
181.486	-295.02
181.708	-57.68
181.929	185.36
182.15	192.79
182.372	-1286.18
182.593	255.89
182.814	-2066.67
183.035	-449.15
183.257	-8.53
183.478	24.88
183.699	30.72
183.92	-30.52
184.141	46.64
184.363	48.1
184.584	48.43
184.805	55.41
185.026	62.55
185.247	51.96
185.468	45
185.689	50.44
185.91	46.72
186.132	44.54
186.353	42.95
186.574	37.57
186.795	25.21
187.016	24.83
187.237	28.92
187.458	27.73
187.679	32.73
187.9	43.55
188.121	41.01
188.342	45.56
188.563	56.32
188.784	33.43
189.005	33.69
189.226	9.21
189.447	-8.28
189.667	0.04
189.888	28.06
190.109	29.92
190.33	48.4
190.551	56.26
190.772	45.74
190.993	42.84
191.214	37.84
191.434	48.33
191.655	41.93
191.876	34.78
192.097	36.49
192.318	44.11
192.538	35.44
192.759	41.03
192.98	63.93
193.201	53.36
193.421	47.51
193.642	47.05
193.863	44.11
194.083	35.78
194.304	34.98
194.525	24.51
194.745	20.45
194.966	21.22
195.187	1.01
195.407	-20.59
195.628	0.28
195.848	9.71
196.069	10.24
196.29	19.04
196.51	47.39
196.731	45.05
196.951	40.81
197.172	38.77
197.392	46.76
197.613	21.5
197.833	25.88
198.054	35.9
198.274	36.48
198.495	30.31
198.715	27.76
198.936	23.59
199.156	13.13
199.377	-2.7
199.597	38.16
199.817	65.2
200.038	71.61
200.258	62.56
200.479	65.03
200.699	53.59
200.919	46.84
201.14	35.7
201.36	35.21
201.58	28.41
201.801	21.26
202.021	11.43
202.241	24.93
202.461	12.65
202.682	12.03
202.902	25.82
203.122	24.06
203.342	21.98
203.563	15.15
203.783	18.69
204.003	23.71
204.223	52.35
204.443	53.55
204.663	69.33
204.884	89.68
205.104	87.21
205.324	53.74
205.544	62.3
205.764	63.66
205.984	52.25
206.204	47.57
206.424	41.01
206.644	11.45
206.864	-7.19
207.084	12
207.304	27.39
207.525	29.41
207.745	43.63
207.964	56.91
208.184	59.35
208.404	50.1
208.624	66.67
208.844	74.5
209.064	71.11
209.284	45.39
209.504	41.41
209.724	17.95
209.944	20.6
210.164	8.31
210.384	30.56
210.604	22.58
210.823	45.55
211.043	41.52
211.263	27.58
211.483	18
211.703	33.84
211.922	29.21
212.142	20.38
212.362	28.54
212.582	19.57
212.801	21.36
213.021	24.19
213.241	17.54
213.461	13.14
213.68	28.1
213.9	29.44
214.12	31.9
214.339	51.22
214.559	51.29
214.779	43.32
214.998	28.33
215.218	18.64
215.438	30.48
215.657	43.26
215.877	34.81
216.096	53.94
216.316	54.63
216.535	23.32
216.755	29.98
216.974	30.69
217.194	29.61
217.413	41.8
217.633	64.29
217.852	76.52
218.072	73.12
218.291	77.06
218.511	61.47
218.73	51.7
218.95	50.35
219.169	61.55
219.389	59.79
219.608	58.99
219.827	65.5
220.047	53.93
220.266	56.95
220.485	56.59
220.705	76.32
220.924	63.93
221.143	71.97
221.363	59.85
221.582	50.93
221.801	25.6
222.021	29.46
222.24	12.42
222.459	14.64
222.678	7.94
222.897	18.5
223.117	6.82
223.336	9.71
223.555	5.16
223.774	29.32
223.993	29.98
224.213	36.65
224.432	45.38
224.651	38.01
224.87	14.48
225.089	23.95
225.308	26.39
225.527	20.48
225.746	27.18
225.965	41.79
226.184	23.18
226.404	29.14
226.623	33.74
226.842	27.98
227.061	27.04
227.28	36.15
227.499	28.38
227.718	26.75
227.936	40.14
228.155	45.32
228.374	46
228.593	38.38
228.812	34.69
229.031	22.97
229.25	22.34
229.469	21.25
229.688	28.58
229.907	33.26
230.125	38.41
230.344	32.35
230.563	30.05
230.782	25.12
231.001	-3.33
231.22	3.93
231.438	-0.65
231.657	-4.9
231.876	2.43
232.095	35.59
232.313	42.52
232.532	47.47
232.751	57.07
232.969	46.22
233.188	47.96
233.407	37.9
233.625	27.27
233.844	26.75
234.063	41.91
234.281	32.68
234.5	35.32
234.719	38.85
234.937	38.86
235.156	38.44
235.374	44.88
235.593	48.52
235.811	50.65
236.03	51.89
236.249	43.24
236.467	40.07
236.686	33.82
236.904	22.45
237.123	16.04
237.341	21.12
237.559	19.93
237.778	32.12
237.996	37.72
238.215	49.18
238.433	42.28
238.652	51.93
238.87	36.69
239.088	38.02
239.307	34.9
239.525	42.4
239.743	41.44
239.962	35.34
240.18	26.35
240.398	24.35
240.617	26.33
240.835	23.68
241.053	27.59
241.271	40.13
241.49	44.49
241.708	53.44
241.926	59.15
242.144	70.65
242.363	78.48
242.581	85.14
242.799	86.72
243.017	78.51
243.235	59.11
243.453	56.45
243.672	40.93
243.89	34.67
244.108	31.59
244.326	27.44
244.544	11.35
244.762	26.5
244.98	26.01
245.198	32.18
245.416	35.79
245.634	46.51
245.852	52.19
246.07	49.05
246.288	45.24
246.506	41.19
246.724	26.67
246.942	7.39
247.16	18.2
247.378	23.02
247.596	30.12
247.814	40.91
248.032	50.49
248.25	52.24
248.468	46.23
248.685	32.3
248.903	32.98
249.121	35.09
249.339	29.4
249.557	33.49
249.775	42.1
249.992	40.42
250.21	36.8
250.428	38.11
250.646	35.27
250.863	32.68
251.081	30.88
251.299	33.13
251.517	27.41
251.734	25.93
251.952	13.34
252.17	20.07
252.387	21.19
252.605	23.04
252.823	16.96
253.04	26.7
253.258	28.9
253.475	27.3
253.693	23.19
253.911	35.35
254.128	36.12
254.346	18.06
254.563	13.49
254.781	23.19
254.998	4.74
255.216	4.83
255.433	34.19
255.651	45.47
255.868	40.46
256.086	39.85
256.303	43.72
256.521	39.14
256.738	37.01
256.956	28.45
257.173	38.78
257.39	36.41
257.608	25.91
257.825	17.06
258.043	33.66
258.26	15.87
258.477	16.69
258.695	3.95
258.912	15.49
259.129	15.76
259.346	18.14
259.564	12.8
259.781	15.93
259.998	40.04
260.216	38.06
260.433	47.79
260.65	64.65
260.867	62.98
261.084	34.91
261.302	40.26
261.519	22.84
261.736	15.97
261.953	29.61
262.17	50.28
262.387	51.39
262.604	57.43
262.822	61.44
263.039	48.12
263.256	30.43
263.473	11.04
263.69	11.11
263.907	7.13
264.124	13.15
264.341	17.21
264.558	31.31
264.775	22.31
264.992	14.62
265.209	15.92
265.426	20.24
265.643	26.07
265.86	30.77
266.077	35.41
266.294	32.45
266.51	35.29
266.727	41.06
266.944	36.95
267.161	43.49
267.378	41.92
267.595	42.79
267.812	23.68
268.028	29.62
268.245	23.36
268.462	25.85
268.679	23.45
268.896	24.09
269.112	27.63
269.329	29.66
269.546	25.09
269.763	34.07
269.979	44.05
270.196	38.3
270.413	29.68
270.629	30.1
270.846	21.61
271.063	7.75
271.279	17.97
271.496	6.99
271.712	20.26
271.929	23.92
272.146	42.54
272.362	27.78
272.579	40.68
272.795	30.87
273.012	28.12
273.228	27.51
273.445	31.85
273.661	31.64
273.878	25.19
274.094	27.74
274.311	10.14
274.527	9.48
274.744	9.19
274.96	12.3
275.177	5.11
275.393	4.23
275.609	11.32
275.826	10.35
276.042	17.92
276.259	1.26
276.475	11.01
276.691	7.29
276.908	3.85
277.124	5.9
277.34	21.09
277.557	26.55
277.773	25.05
277.989	32.41
278.205	28.31
278.422	30.8
278.638	30.19
278.854	44.97
279.07	39.71
279.286	39.63
279.503	40.13
279.719	34.43
279.935	22.85
280.151	25.52
280.367	30.44
280.583	41.83
280.799	39.45
281.016	52.21
281.232	45.87
281.448	43.78
281.664	40.79
281.88	56.29
282.096	46.5
282.312	53.99
282.528	54.36
282.744	44.31
282.96	33.38
283.176	35.81
283.392	27.4
283.608	21.18
283.824	27.04
284.04	19.85
284.256	11.06
284.471	7.14
284.687	3.7
284.903	-3.42
285.119	9.11
285.335	28.34
285.551	36.68
285.767	39.73
285.982	34.79
286.198	27.9
286.414	17.84
286.63	17.63
286.846	5.88
287.061	19.62
287.277	9.94
287.493	11.52
287.709	14.15
287.924	24.79
288.14	19.3
288.356	32.88
288.571	40.23
288.787	32.08
289.003	32.22
289.218	26.11
289.434	20.17
289.65	12.45
289.865	8.14
290.081	22.36
290.296	16.35
290.512	15.64
290.727	11.43
290.943	30.96
291.159	23.37
291.374	32.8
291.59	38.34
291.805	42.95
292.021	20.63
292.236	13.44
292.451	17.04
292.667	15.85
292.882	22.08
293.098	33.99
293.313	51.54
293.529	49.05
293.744	46.26
293.959	38.62
294.175	32.74
294.39	22.9
294.605	21.92
294.821	22.57
295.036	26.7
295.251	46.1
295.467	42.19
295.682	38.2
295.897	39.82
296.112	37.04
296.328	15.08
296.543	12.53
296.758	26.54
296.973	26.9
297.188	41.68
297.404	46.34
297.619	42.51
297.834	43.9
298.049	43.13
298.264	30.21
298.479	44.35
298.694	39.18
298.909	36.59
299.125	50.2
299.34	44.13
299.555	42.12
299.77	50.51
299.985	35.56
300.2	25.42
300.415	28.5
300.63	16.53
300.845	17.65
301.06	19.53
301.275	10.14
301.49	6.83
301.704	17.01
301.919	24.24
302.134	38.06
302.349	37.72
302.564	51.28
302.779	50.19
302.994	35.09
303.209	34.65
303.423	33.11
303.638	24.37
303.853	17.2
304.068	19.98
304.283	5.45
304.497	11.49
304.712	-1.06
304.927	15.47
305.142	22.3
305.356	26.87
305.571	33.62
305.786	43.28
306	35.57
306.215	37.04
306.43	43.01
306.644	39.12
306.859	38.76
307.074	32.99
307.288	27.42
307.503	20.31
307.717	22.86
307.932	16.84
308.147	24.09
308.361	39.09
308.576	27.65
308.79	34.37
309.005	45.45
309.219	33.35
309.434	26.79
309.648	44.07
309.863	30.39
310.077	13.07
310.292	20.08
310.506	13.04
310.72	19.89
310.935	10.76
311.149	0.76
311.364	16.38
311.578	29.82
311.792	26.01
312.007	31.5
312.221	31.34
312.435	33.92
312.649	26.98
312.864	31.55
313.078	26.81
313.292	25.21
313.507	13.51
313.721	2.63
313.935	-7.73
314.149	4.29
314.363	12.86
314.578	-8.92
314.792	-8.5
315.006	8.33
315.22	2.42
315.434	11.24
315.648	39.59
315.862	49.32
316.077	40.59
316.291	46.02
316.505	43.56
316.719	39.64
316.933	41.16
317.147	41.78
317.361	38.5
317.575	22.2
317.789	34.47
318.003	28.49
318.217	12.21
318.431	14.64
318.645	14.21
318.859	8.59
319.073	10.48
319.287	26.37
319.5	23.18
319.714	36.81
319.928	35.25
320.142	34.71
320.356	34.71
320.57	39.46
320.784	39.51
320.997	45.91
321.211	48.14
321.425	52.17
321.639	37.81
321.853	39.1
322.066	21.48
322.28	17.82
322.494	21.49
322.707	28.03
322.921	18.59
323.135	14.98
323.349	10.09
323.562	12.33
323.776	15.6
323.989	18.26
324.203	27.58
324.417	35.92
324.63	24.22
324.844	19.64
325.057	24.92
325.271	22.76
325.485	20.09
325.698	25.21
325.912	20.55
326.125	15.6
326.339	18.62
326.552	25.1
326.766	15.56
326.979	25.36
327.193	25.39
327.406	22.82
327.619	8.26
327.833	25.91
328.046	26.38
328.26	25.88
328.473	23.54
328.686	32.09
328.9	20.81
329.113	20.18
329.326	24.68
329.54	26.76
329.753	34.29
329.966	47.98
330.179	49.4
330.393	42.94
330.606	44.67
330.819	36.33
331.032	33.01
331.246	20.66
331.459	28.63
331.672	26.97
331.885	28.36
332.098	24.41
332.311	32.91
332.525	20.64
332.738	31.9
332.951	40.87
333.164	38.99
333.377	31.85
333.59	36.6
333.803	28.55
334.016	21.51
334.229	32.29
334.442	44.62
334.655	44.91
334.868	60.9
335.081	58.63
335.294	55.16
335.507	47.56
335.72	47.74
335.933	38.06
336.146	32.43
336.359	39.22
336.572	41.22
336.785	35.77
336.997	33.61
337.21	25.94
337.423	7.95
337.636	3.5
337.849	4.54
338.062	3.95
338.274	20.37
338.487	27.46
338.7	24.77
338.913	29.59
339.125	32.08
339.338	24.91
339.551	21.16
339.763	29.26
339.976	32.8
340.189	17.61
340.402	27.21
340.614	34.26
340.827	22.6
341.039	15.63
341.252	30.42
341.465	27.11
341.677	21.54
341.89	28.85
342.102	25.81
342.315	33.76
342.527	35
342.74	35.41
342.952	35.68
343.165	36.99
343.377	25.74
343.59	14.19
343.802	20.32
344.015	28.55
344.227	28.31
344.44	37.7
344.652	47.16
344.864	41.13
345.077	21.39
345.289	35.02
345.502	26.9
345.714	20.64
345.926	18.4
346.139	24.56
346.351	10.36
346.563	18.69
346.775	24.71
346.988	19.77
347.2	17.86
347.412	24.66
347.624	31.35
347.837	31.59
348.049	37.74
348.261	41.2
348.473	48.92
348.685	42.15
348.897	34.83
349.11	36.15
349.322	42.62
349.534	29.9
349.746	30.73
349.958	41.09
350.17	44.61
350.382	30.87
350.594	39.14
350.806	42.21
351.018	34.45
351.23	28.04
351.442	34.41
351.654	19.34
351.866	6.86
352.078	12.19
352.29	9.41
352.502	16.95
352.714	22.56
352.926	27.69
353.138	27.64
353.35	25.97
353.561	21.71
353.773	27.54
353.985	19.15
354.197	15.66
354.409	21.22
354.621	28.58
354.832	25.14
355.044	39.79
355.256	37.12
355.468	31.63
355.679	24.36
355.891	28.24
356.103	28.95
356.314	19.59
356.526	41.34
356.738	41.67
356.949	45.34
357.161	46
357.373	51.67
357.584	40.09
357.796	50.61
358.008	44.37
358.219	40.21
358.431	60.73
358.642	63.54
358.854	55.83
359.065	50.6
359.277	43.5
359.488	29.54
359.7	24.9
359.911	22.13
360.123	23.35
360.334	22.37
360.546	13.89
360.757	23.91
360.969	22.07
361.18	21.71
361.391	24.24
361.603	33.45
361.814	24.87
362.025	33.69
362.237	33.73
362.448	34.92
362.659	29.2
362.871	27.88
363.082	19.22
363.293	30.07
363.504	28.54
363.716	27.5
363.927	26.68
364.138	26.62
364.349	14.98
364.56	9.14
364.772	3.32
364.983	14.14
365.194	16.74
365.405	11.73
365.616	13.16
365.827	19
366.038	17.34
366.25	18.61
366.461	23.03
366.672	28.74
366.883	30.99
367.094	35.45
367.305	35.25
367.516	40.9
367.727	40.69
367.938	38.81
368.149	33.58
368.36	38.51
368.571	34.67
368.781	31.1
368.992	27.31
369.203	13.72
369.414	-3.1
369.625	2.65
369.836	15.18
370.047	22.41
370.258	27.29
370.468	31.4
370.679	28.44
370.89	20.66
371.101	18.29
371.312	21.27
371.522	25.04
371.733	23.5
371.944	17.41
372.155	19.07
372.365	17.18
372.576	17.61
372.787	13.82
372.997	26.35
373.208	16.08
373.419	27.47
373.629	24.81
373.84	30.34
374.05	27.9
374.261	31.34
374.472	20.29
374.682	22.08
374.893	19.1
375.103	21.04
375.314	32.57
375.524	34.24
375.735	26.28
375.945	36.35
376.156	39.38
376.366	21.84
376.577	16.51
376.787	22.7
376.997	9.58
377.208	5.29
377.418	11.76
377.629	23.91
377.839	28.07
378.049	38.38
378.26	29.26
378.47	33.23
378.68	39.26
378.89	36.59
379.101	37.35
379.311	43.49
379.521	37.35
379.732	31.1
379.942	22.21
380.152	16.82
380.362	10.63
380.572	4.4
380.783	7.03
380.993	21.26
381.203	16.65
381.413	21.87
381.623	24.44
381.833	17.55
382.043	17.19
382.253	17.57
382.463	14.13
382.674	22.09
382.884	29.95
383.094	29.72
383.304	38.11
383.514	39.8
383.724	42.59
383.934	38.04
384.144	30.1
384.353	14.13
384.563	11.41
384.773	7.21
384.983	18.36
385.193	18.85
385.403	21.69
385.613	26.54
385.823	22.33
386.033	16.61
386.242	15.83
386.452	16.56
386.662	9.77
386.872	11.71
387.082	5.38
387.291	5.5
387.501	7.56
387.711	7.98
387.921	8.61
388.13	13.01
388.34	15.53
388.55	17.34
388.759	16.24
388.969	15.54
389.179	17.85
389.388	19.53
389.598	16.02
389.807	18.25
390.017	17.5
390.227	14.51
390.436	10.97
390.646	10.05
390.855	6.98
391.065	9.09
391.274	9.52
391.484	11.52
391.693	13.41
391.903	13.7
392.112	11.91
392.322	10.64
392.531	11.05
392.74	9.59
392.95	9.18
393.159	8.49
393.369	9.63
393.578	8.48
393.787	7.75
393.997	7.85
394.206	8.46
394.415	8.04
394.625	8.09
394.834	8.64
395.043	9.17
395.252	9.31
395.462	8.81
395.671	7.76
395.88	7.72
396.089	6.09
396.298	5.62
396.508	7.11
396.717	7.99
396.926	7.54
397.135	7.6
397.344	7.33
397.553	6.55
397.762	5.96
397.971	5.27
398.181	5.54
398.39	5.29
398.599	4.24
398.808	3.97
399.017	4.81
399.226	5.14
399.435	5.38
399.644	5.57
399.853	6.27
400.062	6.26
400.27	6.04
400.479	5.55
400.688	6.08
400.897	5.72
401.106	5.55
401.315	5.57
401.524	5.79
401.733	5.49
401.941	5.6
402.15	5.56
402.359	5.55
402.568	5.87
402.777	5.67
402.985	5.73
403.194	5.64
403.403	5.71
403.612	5.33
403.82	5.23
404.029	4.95
404.238	5.04
404.446	5.04
404.655	4.95
404.864	5.04
405.072	5.12
405.281	5.11
405.489	5.13
405.698	5.2
405.906	5.27
406.115	5.16
406.324	5.03
406.532	4.82
406.741	4.81
406.949	4.78
407.158	4.85
407.366	4.86
407.574	4.94
407.783	4.92
407.991	4.86
408.2	4.89
408.408	4.95
408.617	4.82
408.825	4.86
409.033	4.93
409.242	4.71
409.45	4.81
409.658	4.76
409.867	4.72
410.075	4.71
410.283	4.79
410.491	4.65
410.7	4.63
410.908	4.64
411.116	4.52
411.324	4.49
411.533	4.47
411.741	4.63
411.949	4.65
412.157	4.78
412.365	4.8
412.573	4.88
412.781	4.7
412.99	4.64
413.198	4.52
413.406	4.41
413.614	4.17
413.822	4.19
414.03	4.18
414.238	4.14
414.446	4.18
414.654	4.23
414.862	4.24
415.07	4.24
415.278	4.21
415.486	4.23
415.694	4.21
415.902	4.27
416.109	4.3
416.317	4.31
416.525	4.25
416.733	4.3
416.941	4.28
417.149	4.24
417.357	4.36
417.564	4.3
417.772	4.28
417.98	4.15
418.188	4.04
418.395	3.93
418.603	3.86
418.811	3.99
419.019	4.14
419.226	4.29
419.434	4.26
419.642	4.39
419.849	4.28
420.057	4.13
420.265	3.96
420.472	3.94
420.68	4.04
420.887	3.85
421.095	3.94
421.302	4.04
421.51	4.08
421.717	3.9
421.925	3.97
422.132	3.86
422.34	3.83
422.547	3.78
422.755	3.79
422.962	3.94
423.17	3.97
423.377	3.92
423.585	3.84
423.792	3.84
423.999	3.71
424.207	3.73
424.414	3.86
424.621	3.95
424.829	3.84
425.036	3.96
425.243	3.87
425.451	3.87
425.658	3.79
425.865	4.03
426.072	3.97
426.28	3.98
426.487	4
426.694	4.03
426.901	3.78
427.108	3.78
427.315	3.66
427.523	3.67
427.73	3.73
427.937	3.92
428.144	3.82
428.351	4.08
428.558	3.99
428.765	4.03
428.972	3.89
429.179	3.93
429.386	3.94
429.593	4.1
429.8	4
430.007	4.07
430.214	4.16
430.421	4.08
430.628	3.84
430.835	3.85
431.042	3.79
431.249	3.81
431.456	3.76
431.662	3.75
431.869	3.83
432.076	3.88
432.283	3.75
432.49	3.85
432.697	3.85
432.903	3.74
433.11	3.71
433.317	3.78
433.524	3.73
433.73	3.77
433.937	3.8
434.144	3.8
434.35	3.83
434.557	3.86
434.764	3.9
434.97	3.92
435.177	3.92
435.384	3.93
435.59	3.84
435.797	3.94
436.003	3.9
436.21	3.88
436.416	3.9
436.623	4.02
436.829	3.92
437.036	3.96
437.242	3.96
437.449	3.89
437.655	3.86
437.862	3.91
438.068	3.94
438.275	4.01
438.481	4.13
438.687	4.1
438.894	4.12
439.1	4.17
439.307	4.19
439.513	4.1
439.719	4.14
439.926	4.15
440.132	4.15
440.338	4.17
440.544	4.26
440.751	4.22
440.957	4.24
441.163	4.23
441.369	4.27
441.575	4.11
441.782	4.27
441.988	4.23
442.194	4.18
442.4	4.13
442.606	4.16
442.812	4.18
443.018	4.18
443.224	4.23
443.431	4.33
443.637	4.36
443.843	4.28
444.049	4.29
444.255	4.32
444.461	4.25
444.667	4.25
444.873	4.29
445.079	4.37
445.284	4.39
445.49	4.42
445.696	4.45
445.902	4.37
446.108	4.41
446.314	4.34
446.52	4.33
446.726	4.42
446.931	4.41
447.137	4.4
447.343	4.49
447.549	4.49
447.755	4.47
447.96	4.56
448.166	4.45
448.372	4.41
448.578	4.51
448.783	4.47
448.989	4.49
449.195	4.52
449.4	4.55
449.606	4.46
449.812	4.53
450.017	4.51
450.223	4.58
450.428	4.62
450.634	4.58
450.84	4.49
451.045	4.55
451.251	4.46
451.456	4.44
451.662	4.46
451.867	4.54
452.073	4.46
452.278	4.52
452.483	4.51
452.689	4.64
452.894	4.46
453.1	4.46
453.305	4.47
453.51	4.48
453.716	4.39
453.921	4.51
454.127	4.52
454.332	4.53
454.537	4.47
454.742	4.49
454.948	4.6
455.153	4.61
455.358	4.62
455.563	4.59
455.769	4.65
455.974	4.59
456.179	4.59
456.384	4.56
456.589	4.57
456.795	4.49
457	4.53
457.205	4.47
457.41	4.51
457.615	4.59
457.82	4.61
458.025	4.61
458.23	4.59
458.435	4.58
458.64	4.52
458.845	4.58
459.05	4.49
459.255	4.51
459.46	4.56
459.665	4.57
459.87	4.59
460.075	4.69
460.28	4.69
460.485	4.61
460.69	4.66
460.895	4.65
461.099	4.56
461.304	4.64
461.509	4.7
461.714	4.72
461.919	4.7
462.123	4.78
462.328	4.8
462.533	4.84
462.738	4.87
462.942	4.77
463.147	4.78
463.352	4.69
463.556	4.65
463.761	4.56
463.966	4.65
464.17	4.65
464.375	4.72
464.58	4.81
464.784	4.87
464.989	4.87
465.193	4.89
465.398	4.91
465.602	4.84
465.807	4.84
466.011	4.83
466.216	4.84
466.42	4.88
466.625	4.93
466.829	4.97
467.034	4.98
467.238	5
467.443	5.01
467.647	5.03
467.851	5.06
468.056	5.08
468.26	5.1
468.464	5.07
