Data from Ofra_PS_Phys_0CX5_Reflection_2.txt Node
Date: Tue Jul 20 14:43:46 EDT 2021
User: USUARIO
Spectrometer: FLMT01687
Trigger mode: 0
Integration Time (sec): 1.200000E0
Scans to average: 2
Electric dark correction enabled: true
Nonlinearity correction enabled: false
Boxcar width: 2
XAxis mode: Wavelengths
Number of Pixels in Spectrum: 3648
>>>>>Begin Spectral Data<<<<<
179.494	-100.3
179.716	-419.7
179.937	1071.79
180.158	194.63
180.38	116.2
180.601	105.48
180.823	514.4
181.044	176.36
181.265	-22.22
181.486	-51.34
181.708	23.22
181.929	55.88
182.15	138.74
182.372	-661.79
182.593	119.36
182.814	573.33
183.035	-37.47
183.257	37.08
183.478	76.84
183.699	71.52
183.92	61.27
184.141	58.99
184.363	50.39
184.584	57.66
184.805	38.4
185.026	40.56
185.247	41.1
185.468	44.65
185.689	28.99
185.91	25.24
186.132	30.86
186.353	31.98
186.574	45.75
186.795	50.7
187.016	68.68
187.237	68.88
187.458	58.18
187.679	62.81
187.9	67.85
188.121	42.54
188.342	53.82
188.563	85.51
188.784	52.34
189.005	43.66
189.226	59.3
189.447	48.9
189.667	26.66
189.888	53.82
190.109	63.84
190.33	74.85
190.551	64.14
190.772	52.02
190.993	43.71
191.214	29.89
191.434	22.24
191.655	23.43
191.876	27.42
192.097	35.78
192.318	48.83
192.538	44.63
192.759	49.78
192.98	68.54
193.201	59.19
193.421	46.44
193.642	53.71
193.863	44.44
194.083	41.84
194.304	44.23
194.525	45.69
194.745	60.76
194.966	60.04
195.187	49.32
195.407	40.74
195.628	26.84
195.848	22.35
196.069	40.16
196.29	42.95
196.51	63.61
196.731	76.42
196.951	54.3
197.172	53.33
197.392	58.96
197.613	38.04
197.833	46.02
198.054	55.72
198.274	54.79
198.495	55.08
198.715	53.01
198.936	45.55
199.156	54.37
199.377	21.35
199.597	38.71
199.817	77.65
200.038	72.58
200.258	41.64
200.479	52.07
200.699	48.65
200.919	53.19
201.14	78.12
201.36	83.47
201.58	83.06
201.801	61.97
202.021	47.11
202.241	27.02
202.461	15.66
202.682	10.6
202.902	21.08
203.122	28.48
203.342	38.02
203.563	43.67
203.783	53.38
204.003	58.46
204.223	61.57
204.443	37.14
204.663	47.56
204.884	39.97
205.104	55.9
205.324	56.97
205.544	79.15
205.764	80.92
205.984	67.68
206.204	47.14
206.424	32.77
206.644	10.76
206.864	-11.84
207.084	12.27
207.304	11.29
207.525	22.86
207.745	26.69
207.964	33.24
208.184	40.66
208.404	32
208.624	35.38
208.844	39.43
209.064	34.81
209.284	15.35
209.504	33.71
209.724	23.13
209.944	39.62
210.164	41.84
210.384	64.73
210.604	46.43
210.823	51.01
211.043	45.4
211.263	44.53
211.483	36.71
211.703	48.7
211.922	52.19
212.142	55.86
212.362	48.86
212.582	42.66
212.801	45.09
213.021	38.4
213.241	30.56
213.461	27.97
213.68	30.57
213.9	41
214.12	36.93
214.339	35.53
214.559	24.45
214.779	35.68
214.998	37.82
215.218	38.7
215.438	53.44
215.657	71.11
215.877	44.47
216.096	36.21
216.316	37.68
216.535	30.7
216.755	29.69
216.974	38.67
217.194	51.41
217.413	56.3
217.633	46.69
217.852	64.5
218.072	64
218.291	53.29
218.511	43.64
218.73	27.2
218.95	28.62
219.169	27.07
219.389	24.2
219.608	25.61
219.827	51.75
220.047	34.83
220.266	35.43
220.485	31.98
220.705	36.59
220.924	38.34
221.143	42.74
221.363	47.29
221.582	46.39
221.801	26.26
222.021	34.67
222.24	37.21
222.459	24.14
222.678	27.07
222.897	39.12
223.117	25.39
223.336	19.23
223.555	6.49
223.774	4.22
223.993	7.64
224.213	22.61
224.432	40.75
224.651	53.72
224.87	43.18
225.089	56.21
225.308	54.46
225.527	32.79
225.746	26.69
225.965	32.17
226.184	24.66
226.404	23.52
226.623	33.07
226.842	30.61
227.061	43.1
227.28	47.35
227.499	48.66
227.718	52.09
227.936	67.42
228.155	66.67
228.374	67.54
228.593	63.66
228.812	59.19
229.031	53.83
229.25	39.32
229.469	31.11
229.688	30.64
229.907	32.86
230.125	35.19
230.344	35.18
230.563	31.93
230.782	18.8
231.001	11.49
231.22	15.81
231.438	16.58
231.657	24.97
231.876	52.16
232.095	57.31
232.313	61.67
232.532	63.39
232.751	58.6
232.969	42.51
233.188	29.11
233.407	17.16
233.625	-2.45
233.844	4.27
234.063	21.41
234.281	29.87
234.5	32.56
234.719	36.41
234.937	52.65
235.156	50.22
235.374	60.19
235.593	61.99
235.811	68.68
236.03	59.41
236.249	54.74
236.467	49.03
236.686	42.45
236.904	33.3
237.123	30.08
237.341	24.47
237.559	33.92
237.778	42.08
237.996	49.62
238.215	52.5
238.433	54.08
238.652	45.46
238.87	45.68
239.088	54.23
239.307	57.43
239.525	66.43
239.743	63.02
239.962	52.1
240.18	45.46
240.398	36.45
240.617	41.4
240.835	48.48
241.053	58.08
241.271	60.33
241.49	74.47
241.708	79.67
241.926	78.81
242.144	75.96
242.363	79.27
242.581	70.92
242.799	58.27
243.017	45.68
243.235	48.6
243.453	46.19
243.672	41.21
243.89	33.35
244.108	23.83
244.326	16.93
244.544	20.6
244.762	27.83
244.98	29.44
245.198	32.94
245.416	29
245.634	19.48
245.852	24.7
246.07	39.1
246.288	50.29
246.506	51.55
246.724	52.67
246.942	45.9
247.16	51.65
247.378	39.83
247.596	46.26
247.814	46.39
248.032	50.91
248.25	30.83
248.468	23.76
248.685	15.73
248.903	31.87
249.121	40.91
249.339	44.62
249.557	55.9
249.775	69.33
249.992	50.19
250.21	35.07
250.428	47
250.646	42.26
250.863	34.92
251.081	35.34
251.299	44.55
251.517	31.46
251.734	30.9
251.952	20.71
252.17	36.92
252.387	23.41
252.605	33.04
252.823	32.65
253.04	41.58
253.258	44.15
253.475	54.32
253.693	53.51
253.911	59.71
254.128	54.77
254.346	43.05
254.563	28.46
254.781	36.45
254.998	22.77
255.216	36.43
255.433	51.42
255.651	61.27
255.868	55.62
256.086	57.52
256.303	55.47
256.521	57.37
256.738	54.2
256.956	48.44
257.173	42.04
257.39	45.47
257.608	34.87
257.825	42.94
258.043	52.51
258.26	59.06
258.477	48.01
258.695	34.98
258.912	26
259.129	18.76
259.346	19.34
259.564	20.8
259.781	21.28
259.998	45.06
260.216	50.64
260.433	52.95
260.65	58.61
260.867	64.16
261.084	36.93
261.302	37.12
261.519	30.22
261.736	24.3
261.953	20.96
262.17	31.04
262.387	31.25
262.604	27.74
262.822	31.85
263.039	34.33
263.256	31.87
263.473	33.48
263.69	31.06
263.907	25.99
264.124	13.88
264.341	8.98
264.558	19.11
264.775	22.95
264.992	25.48
265.209	58.48
265.426	89.56
265.643	77.58
265.86	68.8
266.077	62.66
266.294	49.16
266.51	39.81
266.727	35.14
266.944	33.02
267.161	27.67
267.378	31.75
267.595	18.82
267.812	22.56
268.028	39.48
268.245	43.61
268.462	46.59
268.679	47.79
268.896	45.5
269.112	57.94
269.329	66.44
269.546	54.63
269.763	67.24
269.979	56.6
270.196	46.69
270.413	45.59
270.629	43.18
270.846	29.61
271.063	35.77
271.279	28.47
271.496	14.39
271.712	19.45
271.929	25.42
272.146	31.43
272.362	30.83
272.579	48.02
272.795	44.75
273.012	42.71
273.228	45.83
273.445	42.42
273.661	43.73
273.878	40.98
274.094	38.75
274.311	27.44
274.527	28.99
274.744	2.46
274.96	-1.25
275.177	-19.68
275.393	-32.34
275.609	-29.52
275.826	-4.13
276.042	4.19
276.259	17.86
276.475	27.88
276.691	37.97
276.908	39.1
277.124	62.96
277.34	55.86
277.557	55.25
277.773	50.33
277.989	62
278.205	53.44
278.422	62.99
278.638	64.75
278.854	64.44
279.07	45.37
279.286	40.99
279.503	29.45
279.719	27.99
279.935	22.03
280.151	27.79
280.367	36.66
280.583	36.84
280.799	50.07
281.016	61.31
281.232	67.88
281.448	60.68
281.664	69.42
281.88	56.73
282.096	55.53
282.312	52.19
282.528	47.98
282.744	45.92
282.96	42.39
283.176	39.04
283.392	30.43
283.608	32
283.824	35.64
284.04	34.83
284.256	45.96
284.471	53.96
284.687	50.96
284.903	56.1
285.119	66.86
285.335	71.68
285.551	67.7
285.767	67.36
285.982	68.8
286.198	57.62
286.414	38.15
286.63	47.95
286.846	35.57
287.061	34.51
287.277	36.23
287.493	45.12
287.709	47.28
287.924	66.36
288.14	53.22
288.356	52.29
288.571	44.56
288.787	32.33
289.003	22.53
289.218	23.1
289.434	20.83
289.65	26.88
289.865	22.67
290.081	36.89
290.296	20.97
290.512	23
290.727	15
290.943	27.87
291.159	18.45
291.374	27.73
291.59	16.17
291.805	16.52
292.021	-1.58
292.236	6.06
292.451	12.02
292.667	28.9
292.882	33.56
293.098	36.74
293.313	41
293.529	39.75
293.744	33.71
293.959	24.49
294.175	26.03
294.39	12.98
294.605	11.9
294.821	-3.14
295.036	17.06
295.251	34.84
295.467	36.84
295.682	35.19
295.897	41.78
296.112	34.59
296.328	13.93
296.543	7.23
296.758	4.74
296.973	0.37
297.188	2.97
297.404	13.36
297.619	17.21
297.834	18.34
298.049	26.14
298.264	33.68
298.479	50.99
298.694	53.62
298.909	59.56
299.125	80.19
299.34	60.22
299.555	54.42
299.77	49.67
299.985	38.54
300.2	17.31
300.415	8.45
300.63	-0.11
300.845	1.95
301.06	1.99
301.275	-0.14
301.49	22.55
301.704	41.74
301.919	49.3
302.134	57.95
302.349	50.64
302.564	50.59
302.779	43.52
302.994	31.02
303.209	26.52
303.423	24.14
303.638	17.49
303.853	14.37
304.068	28.44
304.283	23.87
304.497	36.86
304.712	37.12
304.927	31.68
305.142	28.39
305.356	28.61
305.571	20.8
305.786	19.27
306	23.72
306.215	16.06
306.43	33.68
306.644	41.35
306.859	47.3
307.074	44.47
307.288	45.72
307.503	34.48
307.717	35.66
307.932	32.85
308.147	18.92
308.361	33.81
308.576	27.52
308.79	30.45
309.005	22.17
309.219	31.95
309.434	21.84
309.648	29.39
309.863	15.39
310.077	27.18
310.292	27.56
310.506	16.24
310.72	21.22
310.935	40.66
311.149	32.07
311.364	38.97
311.578	55.95
311.792	53.07
312.007	41.79
312.221	44.19
312.435	43.05
312.649	34.42
312.864	14.47
313.078	25.64
313.292	1.61
313.507	3.81
313.721	-3.25
313.935	37.81
314.149	33.61
314.363	44.97
314.578	30.28
314.792	12.61
315.006	9.96
315.22	4.81
315.434	2.75
315.648	19.41
315.862	34.98
316.077	27.75
316.291	30.64
316.505	33.42
316.719	23.21
316.933	29.78
317.147	35.38
317.361	30.02
317.575	21.27
317.789	26.91
318.003	24.77
318.217	20.32
318.431	19.65
318.645	25.48
318.859	22.4
319.073	9.97
319.287	9.71
319.5	15.46
319.714	16.34
319.928	28.6
320.142	43.02
320.356	40.61
320.57	33.76
320.784	36.69
320.997	40.97
321.211	35.06
321.425	35.99
321.639	43.07
321.853	48.7
322.066	42.07
322.28	34.48
322.494	46.06
322.707	42.54
322.921	39.23
323.135	26.63
323.349	25.11
323.562	23.13
323.776	24.56
323.989	25.84
324.203	31.39
324.417	41.24
324.63	44.26
324.844	41.88
325.057	36.66
325.271	38.95
325.485	35.35
325.698	31.38
325.912	24.53
326.125	24.09
326.339	33.49
326.552	32.81
326.766	38.28
326.979	53
327.193	60
327.406	49.71
327.619	45.12
327.833	38.71
328.046	31.21
328.26	18.25
328.473	13.64
328.686	19.5
328.9	12.94
329.113	13.14
329.326	12.55
329.54	15.78
329.753	5.42
329.966	25.5
330.179	34.91
330.393	54.84
330.606	48.91
330.819	55.23
331.032	42.01
331.246	37.12
331.459	31.44
331.672	39.51
331.885	44.78
332.098	37.34
332.311	28.54
332.525	14.11
332.738	19.03
332.951	32.65
333.164	35.63
333.377	37.15
333.59	43.42
333.803	39.89
334.016	23.64
334.229	34.36
334.442	35.27
334.655	31.43
334.868	27.83
335.081	27.88
335.294	30.04
335.507	24.88
335.72	30.02
335.933	32.06
336.146	37.29
336.359	37.62
336.572	38.93
336.785	27.91
336.997	30.24
337.21	16.58
337.423	13.61
337.636	-4.45
337.849	9.7
338.062	12.41
338.274	26.26
338.487	25.83
338.7	33.42
338.913	21.65
339.125	18.06
339.338	5.48
339.551	3.68
339.763	2.78
339.976	27.95
340.189	31.19
340.402	38.4
340.614	38.9
340.827	37.62
341.039	31.87
341.252	40.24
341.465	42.74
341.677	48.94
341.89	55.94
342.102	46.14
342.315	49.89
342.527	52.07
342.74	45.77
342.952	45.63
343.165	42.84
343.377	34.81
343.59	22.19
343.802	22.08
344.015	32.05
344.227	48.99
344.44	56.06
344.652	65.84
344.864	69.86
345.077	62.03
345.289	59.54
345.502	59.39
345.714	59.74
345.926	56.3
346.139	55.99
346.351	44.55
346.563	39.57
346.775	37.54
346.988	32.69
347.2	26.44
347.412	22.78
347.624	30.7
347.837	27.74
348.049	26.38
348.261	28.23
348.473	39.3
348.685	35.57
348.897	39.73
349.11	41.51
349.322	45.71
349.534	38.96
349.746	39.62
349.958	39.16
350.17	38.38
350.382	29.58
350.594	29.8
350.806	30.15
351.018	31.22
351.23	27.51
351.442	30.27
351.654	30.17
351.866	22.59
352.078	25.52
352.29	17.91
352.502	20.84
352.714	16.75
352.926	17.23
353.138	16.14
353.35	19.33
353.561	17.08
353.773	14.4
353.985	13.6
354.197	5.89
354.409	8.25
354.621	10.09
354.832	23.09
355.044	23.95
355.256	26.84
355.468	28.05
355.679	17.95
355.891	16.5
356.103	11.69
356.314	9.37
356.526	22.01
356.738	41.44
356.949	43.67
357.161	50.17
357.373	60.02
357.584	49.14
357.796	42.13
358.008	36.66
358.219	28.53
358.431	20.98
358.642	29.51
358.854	25.07
359.065	26.21
359.277	26.25
359.488	26.25
359.7	28.93
359.911	24.19
360.123	24.75
360.334	24.86
360.546	21.02
360.757	14.85
360.969	19.5
361.18	25.79
361.391	32.12
361.603	39.3
361.814	38.34
362.025	43
362.237	42.55
362.448	45.45
362.659	42.45
362.871	38.92
363.082	37.49
363.293	39.63
363.504	22.63
363.716	13.56
363.927	4.72
364.138	9.32
364.349	5.48
364.56	11.22
364.772	6.73
364.983	14.79
365.194	11.52
365.405	13.39
365.616	17.44
365.827	22.2
366.038	24.98
366.25	23.81
366.461	26.89
366.672	33.07
366.883	34.34
367.094	47.26
367.305	48.68
367.516	39.05
367.727	34.66
367.938	35.2
368.149	18.58
368.36	14.01
368.571	15.54
368.781	13.06
368.992	10.44
369.203	14.96
369.414	10.06
369.625	26.82
369.836	28.68
370.047	30.78
370.258	31.05
370.468	33.79
370.679	22.03
370.89	19.61
371.101	24.34
371.312	16.16
371.522	25.61
371.733	32.55
371.944	32.67
372.155	33.24
372.365	33.14
372.576	23.67
372.787	14.13
372.997	22.12
373.208	18.36
373.419	27.8
373.629	34.68
373.84	50.22
374.05	42.5
374.261	47.05
374.472	37.16
374.682	34
374.893	28.59
375.103	27.12
375.314	23.45
375.524	23.45
375.735	22.72
375.945	25.41
376.156	31.21
376.366	26.96
376.577	33.12
376.787	33.3
376.997	26.29
377.208	22.59
377.418	22.43
377.629	24.12
377.839	27.76
378.049	35.16
378.26	27.68
378.47	25.66
378.68	35.05
378.89	25.04
379.101	15.24
379.311	20.05
379.521	21.93
379.732	7.35
379.942	3.05
380.152	3.1
380.362	2.79
380.572	4.83
380.783	18.71
380.993	36.47
381.203	37.12
381.413	37.19
381.623	33.37
381.833	27.68
382.043	26.62
382.253	17.41
382.463	17.37
382.674	17.93
382.884	20.03
383.094	19.03
383.304	30.21
383.514	30.35
383.724	35.28
383.934	34.06
384.144	36.7
384.353	27.51
384.563	28.74
384.773	27.19
384.983	31.46
385.193	25.15
385.403	28.35
385.613	26.76
385.823	25.46
386.033	21.02
386.242	23.18
386.452	21.72
386.662	19.34
386.872	19.61
387.082	15.88
387.291	13.57
387.501	18.42
387.711	17.86
387.921	18.67
388.13	19.68
388.34	19.16
388.55	17.21
388.759	18.67
388.969	15.84
389.179	14.65
389.388	16.85
389.598	11.88
389.807	11.42
390.017	11.51
390.227	12.5
390.436	9.92
390.646	11.67
390.855	12.06
391.065	11.14
391.274	11.54
391.484	13.45
391.693	12.38
391.903	11.27
392.112	13.25
392.322	12.7
392.531	11.66
392.74	11.1
392.95	9.93
393.159	8.41
393.369	8.98
393.578	6.87
393.787	6.87
393.997	6.85
394.206	7.3
394.415	8.27
394.625	8.33
394.834	8.16
395.043	8.21
395.252	6.98
395.462	5.66
395.671	5.45
395.88	6.01
396.089	5.36
396.298	5.29
396.508	5.7
396.717	6.14
396.926	5.63
397.135	5.6
397.344	5.41
397.553	5.15
397.762	4.54
397.971	4.6
398.181	4.46
398.39	4.75
398.599	3.74
398.808	3.81
399.017	4.14
399.226	4.24
399.435	4.31
399.644	4.34
399.853	4.96
400.062	4.49
400.27	4.18
400.479	3.89
400.688	4.55
400.897	4.01
401.106	4.41
401.315	4.65
401.524	4.56
401.733	4.23
401.941	4.48
402.15	4.26
402.359	4.36
402.568	4.61
402.777	4.48
402.985	4.37
403.194	3.94
403.403	4
403.612	3.77
403.82	3.57
404.029	3.36
404.238	3.74
404.446	3.61
404.655	3.62
404.864	3.82
405.072	3.96
405.281	3.89
405.489	4.02
405.698	3.89
405.906	3.85
406.115	3.74
406.324	3.59
406.532	3.43
406.741	3.41
406.949	3.36
407.158	3.53
407.366	3.58
407.574	3.61
407.783	3.66
407.991	3.67
408.2	3.61
408.408	3.73
408.617	3.55
408.825	3.67
409.033	3.81
409.242	3.56
409.45	3.48
409.658	3.48
409.867	3.4
410.075	3.28
410.283	3.39
410.491	3.31
410.7	3.39
410.908	3.51
411.116	3.44
411.324	3.5
411.533	3.49
411.741	3.47
411.949	3.37
412.157	3.36
412.365	3.29
412.573	3.43
412.781	3.39
412.99	3.46
413.198	3.6
413.406	3.57
413.614	3.44
413.822	3.32
414.03	3.22
414.238	3.09
414.446	3.1
414.654	2.97
414.862	3.17
415.07	3.15
415.278	3.04
415.486	3.14
415.694	3.21
415.902	3.11
416.109	3.09
416.317	3.25
416.525	3.18
416.733	3.24
416.941	3.25
417.149	3.2
417.357	3.28
417.564	3.18
417.772	3.14
417.98	3.1
418.188	3.1
418.395	3.06
418.603	3.08
418.811	3.15
419.019	3.25
419.226	3.35
419.434	3.26
419.642	3.27
419.849	3.15
420.057	3
420.265	2.93
420.472	2.96
420.68	3.01
420.887	3.01
421.095	3.06
421.302	3.13
421.51	3.08
421.717	2.86
421.925	2.77
422.132	2.85
422.34	2.77
422.547	2.77
422.755	2.91
422.962	3.01
423.17	2.95
423.377	2.75
423.585	2.63
423.792	2.55
423.999	2.56
424.207	2.5
424.414	2.77
424.621	2.73
424.829	2.74
425.036	2.69
425.243	2.73
425.451	2.69
425.658	2.76
425.865	2.92
426.072	2.87
426.28	2.88
426.487	2.89
426.694	2.9
426.901	2.65
427.108	2.72
427.315	2.68
427.523	2.63
427.73	2.72
427.937	2.91
428.144	2.88
428.351	3.07
428.558	3.13
428.765	3.24
428.972	3.18
429.179	3.18
429.386	3.12
429.593	3.16
429.8	3.02
430.007	2.99
430.214	3.16
430.421	3.17
430.628	3.04
430.835	2.94
431.042	2.97
431.249	2.84
431.456	2.66
431.662	2.69
431.869	2.84
432.076	2.94
432.283	2.95
432.49	3.16
432.697	3.14
432.903	3.03
433.11	2.89
433.317	3.03
433.524	2.88
433.73	2.87
433.937	2.87
434.144	2.97
434.35	2.86
434.557	2.87
434.764	2.92
434.97	2.97
435.177	2.93
435.384	2.99
435.59	2.98
435.797	2.98
436.003	2.94
436.21	2.92
436.416	2.88
436.623	2.93
436.829	2.91
437.036	2.85
437.242	2.8
437.449	2.69
437.655	2.67
437.862	2.69
438.068	2.79
438.275	2.9
438.481	3.03
438.687	2.97
438.894	3
439.1	3.05
439.307	3.12
439.513	3.11
439.719	3.22
439.926	3.24
440.132	3.21
440.338	3.14
440.544	3.14
440.751	3.1
440.957	3.12
441.163	3.1
441.369	3.13
441.575	3.1
441.782	3.14
441.988	3.14
442.194	3.13
442.4	3.13
442.606	3.11
442.812	3.09
443.018	3.02
443.224	3.05
443.431	3.02
443.637	2.95
443.843	2.93
444.049	3.01
444.255	2.98
444.461	3.04
444.667	3.12
444.873	3.19
445.079	3.14
445.284	3.18
445.49	3.21
445.696	3.21
445.902	3.19
446.108	3.27
446.314	3.21
446.52	3.17
446.726	3.21
446.931	3.24
447.137	3.24
447.343	3.35
447.549	3.32
447.755	3.34
447.96	3.36
448.166	3.34
448.372	3.27
448.578	3.36
448.783	3.35
448.989	3.37
449.195	3.32
449.4	3.39
449.606	3.32
449.812	3.31
450.017	3.27
450.223	3.31
450.428	3.28
450.634	3.31
450.84	3.29
451.045	3.27
451.251	3.22
451.456	3.24
451.662	3.21
451.867	3.21
452.073	3.28
452.278	3.38
452.483	3.39
452.689	3.43
452.894	3.37
453.1	3.33
453.305	3.29
453.51	3.22
453.716	3.19
453.921	3.29
454.127	3.29
454.332	3.28
454.537	3.19
454.742	3.22
454.948	3.18
455.153	3.21
455.358	3.24
455.563	3.31
455.769	3.34
455.974	3.33
456.179	3.26
456.384	3.23
456.589	3.23
456.795	3.1
457	3.1
457.205	3.13
457.41	3.15
457.615	3.1
457.82	3.19
458.025	3.22
458.23	3.12
458.435	3.07
458.64	3.05
458.845	3.08
459.05	3.01
459.255	3.17
459.46	3.24
459.665	3.28
459.87	3.27
460.075	3.36
460.28	3.26
460.485	3.2
460.69	3.32
460.895	3.3
461.099	3.34
461.304	3.41
461.509	3.51
461.714	3.41
461.919	3.39
462.123	3.33
462.328	3.41
462.533	3.37
462.738	3.43
462.942	3.43
463.147	3.46
463.352	3.33
463.556	3.37
463.761	3.31
463.966	3.29
464.17	3.28
464.375	3.41
464.58	3.33
464.784	3.34
464.989	3.43
465.193	3.47
465.398	3.41
465.602	3.49
465.807	3.57
466.011	3.53
466.216	3.49
466.42	3.48
466.625	3.43
466.829	3.37
467.034	3.35
467.238	3.43
467.443	3.45
467.647	3.45
467.851	3.49
468.056	3.57
468.26	3.49
