Data from Ofra_PS_Phys_0CX5_Reflection_3.txt Node
Date: Tue Jul 20 14:44:39 EDT 2021
User: USUARIO
Spectrometer: FLMT01687
Trigger mode: 0
Integration Time (sec): 1.200000E0
Scans to average: 2
Electric dark correction enabled: true
Nonlinearity correction enabled: false
Boxcar width: 2
XAxis mode: Wavelengths
Number of Pixels in Spectrum: 3648
>>>>>Begin Spectral Data<<<<<
179.494	76.28
179.716	757.58
179.937	-368.21
180.158	-19.98
180.38	31.92
180.601	30.23
180.823	553.91
181.044	247.28
181.265	-245.65
181.486	63.6
181.708	108.61
181.929	196.92
182.15	103.22
182.372	-798.37
182.593	112.18
182.814	-5346.67
183.035	-379.08
183.257	-51.67
183.478	-14.71
183.699	36.73
183.92	13.12
184.141	23.35
184.363	49.12
184.584	18.05
184.805	-11.84
185.026	8.03
185.247	16.83
185.468	0.56
185.689	21.31
185.91	18.82
186.132	33.45
186.353	26.29
186.574	36.13
186.795	28.92
187.016	36.79
187.237	40.42
187.458	44.95
187.679	46.61
187.9	54.16
188.121	33.54
188.342	21.85
188.563	25.29
188.784	25.02
189.005	20.23
189.226	59.53
189.447	51.4
189.667	38.46
189.888	41.04
190.109	44.25
190.33	41.79
190.551	49.16
190.772	41.07
190.993	39.22
191.214	29.03
191.434	19.6
191.655	18.72
191.876	12.5
192.097	9.21
192.318	19.12
192.538	30.35
192.759	21.68
192.98	38.29
193.201	30.93
193.421	17.16
193.642	11.88
193.863	18.76
194.083	29.41
194.304	28.63
194.525	22
194.745	32.99
194.966	32.66
195.187	-4.66
195.407	-24.18
195.628	-7.68
195.848	-13.79
196.069	-8.36
196.29	-8.3
196.51	18.6
196.731	18.49
196.951	6.77
197.172	4.27
197.392	22.61
197.613	8.87
197.833	10.85
198.054	17.09
198.274	20.48
198.495	9.84
198.715	-5.55
198.936	1.18
199.156	2.74
199.377	-92.41
199.597	-100.87
199.817	-27.02
200.038	-60.54
200.258	-56.82
200.479	-7.43
200.699	-20.69
200.919	-29.12
201.14	21.38
201.36	34.35
201.58	22.16
201.801	28.59
202.021	14.65
202.241	19.71
202.461	19.46
202.682	27.26
202.902	35.72
203.122	36.45
203.342	29.26
203.563	16.3
203.783	18.16
204.003	-2.97
204.223	-1.54
204.443	5.25
204.663	12.37
204.884	8.58
205.104	34.61
205.324	50.26
205.544	48.25
205.764	58.64
205.984	43.46
206.204	46.72
206.424	27.6
206.644	6.88
206.864	-9.25
207.084	9.61
207.304	-5.48
207.525	-8.84
207.745	1.36
207.964	6.6
208.184	3.92
208.404	0.91
208.624	17.43
208.844	12.68
209.064	11.85
209.284	10.83
209.504	14.9
209.724	-3.2
209.944	10.51
210.164	6.4
210.384	21.96
210.604	8.71
210.823	30.25
211.043	31.01
211.263	20.52
211.483	8.47
211.703	25.83
211.922	13.78
212.142	19.66
212.362	28.21
212.582	16.34
212.801	5.41
213.021	17.24
213.241	9.99
213.461	-2.63
213.68	3.64
213.9	20.6
214.12	13.02
214.339	-6.13
214.559	-3.67
214.779	12.6
214.998	6.41
215.218	-11.46
215.438	7.84
215.657	25.97
215.877	10.92
216.096	14.28
216.316	21.25
216.535	15.18
216.755	16.98
216.974	30.21
217.194	28.05
217.413	37.17
217.633	39.55
217.852	61.34
218.072	50.73
218.291	54.81
218.511	41.09
218.73	30.58
218.95	15.01
219.169	14.26
219.389	6.85
219.608	7.34
219.827	22.5
220.047	31.07
220.266	32.13
220.485	51.63
220.705	63.64
220.924	67.31
221.143	50.87
221.363	39.39
221.582	27.53
221.801	13.15
222.021	1.25
222.24	3.68
222.459	0.17
222.678	-2.52
222.897	7.61
223.117	-8.1
223.336	-1.78
223.555	-8.42
223.774	-1.36
223.993	14.78
224.213	24.68
224.432	19.3
224.651	44.99
224.87	45.39
225.089	35.91
225.308	44.98
225.527	41.56
225.746	23.98
225.965	24.08
226.184	27.36
226.404	22.11
226.623	38.43
226.842	28.42
227.061	30.19
227.28	18.9
227.499	19.95
227.718	1.81
227.936	31.15
228.155	35.55
228.374	38.38
228.593	36.73
228.812	34.81
229.031	8.42
229.25	-9.7
229.469	-7.65
229.688	-12.45
229.907	-3.13
230.125	1.71
230.344	10.3
230.563	13.86
230.782	13.82
231.001	-11.64
231.22	6.85
231.438	-0.42
231.657	-2.43
231.876	-5.94
232.095	14.45
232.313	28.41
232.532	41.98
232.751	40.57
232.969	46.09
233.188	42.26
233.407	28.16
233.625	0.56
233.844	5.84
234.063	5.97
234.281	8.45
234.5	8.57
234.719	18.83
234.937	10.46
235.156	19.52
235.374	30.03
235.593	31.64
235.811	32.1
236.03	37.23
236.249	27.96
236.467	23.96
236.686	29.65
236.904	29.29
237.123	28.62
237.341	26.07
237.559	24.4
237.778	25.44
237.996	23.68
238.215	21.65
238.433	29.23
238.652	30.44
238.87	3.93
239.088	1.04
239.307	6.65
239.525	-18.76
239.743	-5.05
239.962	-5.13
240.18	3.36
240.398	-11.84
240.617	-0.32
240.835	-0.87
241.053	10.19
241.271	23.32
241.49	34.49
241.708	41.63
241.926	59.56
242.144	62.69
242.363	48.11
242.581	54.64
242.799	56.54
243.017	16.27
243.235	20.76
243.453	23.18
243.672	22.92
243.89	13.88
244.108	34.05
244.326	38.78
244.544	36.64
244.762	28.4
244.98	25.65
245.198	11.91
245.416	10.42
245.634	21.58
245.852	27.36
246.07	20.95
246.288	28.05
246.506	18.59
246.724	13.75
246.942	-1.39
247.16	14.79
247.378	4.95
247.596	3.25
247.814	-3.22
248.032	-1.09
248.25	-18.3
248.468	-15.43
248.685	-7.65
248.903	14.53
249.121	27.96
249.339	31.4
249.557	26.27
249.775	34.6
249.992	18.47
250.21	16.12
250.428	26.22
250.646	14.76
250.863	15.23
251.081	21.95
251.299	22.98
251.517	20.89
251.734	35.61
251.952	28.07
252.17	20.07
252.387	15.76
252.605	9.89
252.823	-5.39
253.04	3.22
253.258	8.74
253.475	25.2
253.693	38.82
253.911	45.12
254.128	32.76
254.346	18.77
254.563	-7.16
254.781	-8.43
254.998	-8.2
255.216	7.42
255.433	26.43
255.651	48.19
255.868	33.49
256.086	23.84
256.303	28.97
256.521	31.68
256.738	16.57
256.956	15.92
257.173	24.17
257.39	21.35
257.608	3.45
257.825	-5.25
258.043	-7.46
258.26	-6.95
258.477	-9.07
258.695	-6.31
258.912	30.95
259.129	32.55
259.346	19.17
259.564	6.16
259.781	-14.58
259.998	-0.81
260.216	2.07
260.433	22.44
260.65	29.16
260.867	42.63
261.084	15.12
261.302	13.54
261.519	-0.64
261.736	8.93
261.953	14.48
262.17	26.61
262.387	23.82
262.604	43.69
262.822	31.48
263.039	30.91
263.256	30.43
263.473	26.82
263.69	-0.11
263.907	-1.14
264.124	0.02
264.341	-16.16
264.558	-24.53
264.775	-11.43
264.992	-14.74
265.209	-24.95
265.426	-2.52
265.643	31.82
265.86	27.9
266.077	46.38
266.294	41.4
266.51	35
266.727	20.67
266.944	21.2
267.161	21.15
267.378	25.04
267.595	27.94
267.812	17.8
268.028	17.91
268.245	-2.79
268.462	-4.39
268.679	-13.52
268.896	-19.61
269.112	-7.07
269.329	2.58
269.546	-15.19
269.763	1.32
269.979	8.6
270.196	0.34
270.413	10.58
270.629	22.98
270.846	16.85
271.063	11.69
271.279	13
271.496	-5.81
271.712	9.39
271.929	10.81
272.146	17.9
272.362	3.66
272.579	7.67
272.795	0.16
273.012	-6.72
273.228	1.94
273.445	17.93
273.661	22.45
273.878	14.27
274.094	8.37
274.311	-4.1
274.527	-11.68
274.744	-25.75
274.96	-9.12
275.177	-8.17
275.393	-16.04
275.609	-11.05
275.826	6.49
276.042	0.64
276.259	-1.97
276.475	1.23
276.691	2.5
276.908	9.3
277.124	12.98
277.34	16.58
277.557	29.31
277.773	16.62
277.989	15.61
278.205	15.69
278.422	21.63
278.638	19.22
278.854	30.94
279.07	14.13
279.286	7.94
279.503	1.14
279.719	8.78
279.935	6.39
280.151	15.75
280.367	25.14
280.583	38.14
280.799	25.04
281.016	26.39
281.232	29.19
281.448	30.13
281.664	14.58
281.88	20.19
282.096	22.39
282.312	18.78
282.528	9.34
282.744	17.62
282.96	14.03
283.176	13.18
283.392	7.24
283.608	10.24
283.824	8.86
284.04	13.24
284.256	1.56
284.471	-3.8
284.687	-10.06
284.903	-22.35
285.119	-16.83
285.335	3.51
285.551	11.87
285.767	14.32
285.982	26.87
286.198	29
286.414	24.02
286.63	33.92
286.846	28.21
287.061	38.61
287.277	11.92
287.493	3.63
287.709	-17.66
287.924	-12.16
288.14	-12.68
288.356	5.86
288.571	8.19
288.787	7.62
289.003	2.01
289.218	-3.94
289.434	-7.88
289.65	-4.79
289.865	-17.35
290.081	-9.87
290.296	-12.4
290.512	-23.12
290.727	-31.33
290.943	-10.72
291.159	-9.49
291.374	-6.53
291.59	3.69
291.805	11.91
292.021	5.29
292.236	4.55
292.451	10.07
292.667	7.52
292.882	2.11
293.098	0.57
293.313	10.43
293.529	3.48
293.744	7.02
293.959	1.72
294.175	7.93
294.39	-18.49
294.605	-6.04
294.821	-15.49
295.036	7.04
295.251	18.5
295.467	36.41
295.682	31.67
295.897	31.77
296.112	29.7
296.328	22.77
296.543	14.61
296.758	23.06
296.973	21.77
297.188	35.8
297.404	28.17
297.619	32.47
297.834	28.99
298.049	33.4
298.264	11.08
298.479	23
298.694	17.19
298.909	19.32
299.125	19.25
299.34	13.33
299.555	5.07
299.77	13.45
299.985	7.53
300.2	1.91
300.415	1.48
300.63	-5.93
300.845	-9.06
301.06	-19.48
301.275	-19.7
301.49	-15.2
301.704	5.49
301.919	6.78
302.134	25.91
302.349	22.5
302.564	35.24
302.779	20.29
302.994	16.76
303.209	15.63
303.423	23.43
303.638	5.6
303.853	9.32
304.068	-7.55
304.283	-21.51
304.497	-15.26
304.712	-15.34
304.927	-1.79
305.142	7.18
305.356	10.29
305.571	8.79
305.786	17.23
306	5.77
306.215	5.57
306.43	21.85
306.644	22.49
306.859	18.17
307.074	17.99
307.288	10.83
307.503	-0.22
307.717	5.04
307.932	3.39
308.147	1.48
308.361	14.9
308.576	15.18
308.79	8.82
309.005	0.65
309.219	0.03
309.434	1.02
309.648	-4.69
309.863	-7
310.077	-4.2
310.292	-17.48
310.506	-25.81
310.72	1.36
310.935	1.04
311.149	14.01
311.364	31.72
311.578	42.1
311.792	18.15
312.007	23.34
312.221	25.93
312.435	31.21
312.649	24.82
312.864	44.83
313.078	34.42
313.292	12.22
313.507	3.81
313.721	-2.78
313.935	-4.77
314.149	-7.98
314.363	9.84
314.578	17.64
314.792	8.41
315.006	7.24
315.22	-0.42
315.434	-7.98
315.648	-10.2
315.862	-14.59
316.077	-7.36
316.291	8.47
316.505	7.07
316.719	-2.57
316.933	15.11
317.147	11.45
317.361	-3.74
317.575	-5.27
317.789	4.21
318.003	-5.96
318.217	-8.43
318.431	-3.18
318.645	3.87
318.859	-5.53
319.073	0.7
319.287	1.93
319.5	8.8
319.714	17.67
319.928	23.55
320.142	14.71
320.356	11.47
320.57	7.77
320.784	-0.21
320.997	-2.67
321.211	1.43
321.425	17.07
321.639	11.82
321.853	17.65
322.066	8.61
322.28	-21.35
322.494	-11.16
322.707	6.2
322.921	4.05
323.135	15.97
323.349	20.17
323.562	13.53
323.776	6.1
323.989	3.2
324.203	6.1
324.417	24.8
324.63	14.56
324.844	23.26
325.057	32.19
325.271	25.35
325.485	6.99
325.698	13.29
325.912	7.87
326.125	-2.24
326.339	0.92
326.552	7.1
326.766	1.2
326.979	1.1
327.193	15.54
327.406	16.25
327.619	20.13
327.833	41.61
328.046	47.13
328.26	24.09
328.473	25.72
328.686	25.34
328.9	6.83
329.113	-2.19
329.326	9.72
329.54	11.52
329.753	12.42
329.966	15.44
330.179	20.79
330.393	31.27
330.606	28.02
330.819	21.66
331.032	16.64
331.246	13.02
331.459	9.36
331.672	-7.55
331.885	-9.47
332.098	-8.73
332.311	-14.07
332.525	-24.44
332.738	9
332.951	32.89
333.164	30.66
333.377	23.83
333.59	18.37
333.803	11.24
334.016	-1.35
334.229	18.41
334.442	15.27
334.655	12.91
334.868	17.07
335.081	7.74
335.294	-4.21
335.507	-1.88
335.72	13.73
335.933	7.82
336.146	11.49
336.359	7.17
336.572	20.68
336.785	-5.76
336.997	-10.9
337.21	-26.05
337.423	-21.81
337.636	-55.65
337.849	-23.19
338.062	-12.36
338.274	4.37
338.487	6.79
338.7	7.83
338.913	0.15
339.125	5.26
339.338	-3.57
339.551	1.93
339.763	9.06
339.976	29.7
340.189	24.24
340.402	34.57
340.614	33.26
340.827	28.68
341.039	11.35
341.252	11.61
341.465	13.44
341.677	12.53
341.89	12.27
342.102	13.2
342.315	19.81
342.527	18.85
342.74	20.82
342.952	30.15
343.165	28.5
343.377	23.54
343.59	16.54
343.802	7.41
344.015	-0.22
344.227	1.42
344.44	4.37
344.652	14.74
344.864	16.49
345.077	20.97
345.289	38.57
345.502	35.17
345.714	19.18
345.926	15.42
346.139	17.04
346.351	-0.85
346.563	11.22
346.775	20.52
346.988	21.4
347.2	15
347.412	12.34
347.624	8.57
347.837	9.44
348.049	7.52
348.261	2.18
348.473	19.56
348.685	18.63
348.897	10.29
349.11	4.92
349.322	6.55
349.534	-5.34
349.746	-7.48
349.958	-2.15
350.17	6.02
350.382	-0.1
350.594	-9.09
350.806	-11.8
351.018	-2.34
351.23	-6.43
351.442	-4
351.654	-6.9
351.866	6.59
352.078	14.36
352.29	15.12
352.502	21.64
352.714	15.63
352.926	10.2
353.138	5.99
353.35	9.63
353.561	7.73
353.773	18.37
353.985	10.39
354.197	4.45
354.409	-3.04
354.621	0.16
354.832	-2.03
355.044	1.71
355.256	2.36
355.468	-1.12
355.679	-10.33
355.891	-3.89
356.103	-1.49
356.314	-10.48
356.526	-3.98
356.738	4.71
356.949	1.45
357.161	15.93
357.373	26.21
357.584	19.95
357.796	23.45
358.008	15.04
358.219	1.16
358.431	4.75
358.642	20.01
358.854	11.18
359.065	28.72
359.277	28.66
359.488	16.04
359.7	10.62
359.911	15.86
360.123	5.39
360.334	3.23
360.546	17.19
360.757	16.32
360.969	6.74
361.18	11.83
361.391	20.67
361.603	17.67
361.814	8.73
362.025	11.85
362.237	13.66
362.448	10.08
362.659	1.54
362.871	13.95
363.082	13.17
363.293	11.74
363.504	-1.19
363.716	-0.38
363.927	-7.85
364.138	-1.41
364.349	1.44
364.56	11
364.772	15.43
364.983	19
365.194	19.31
365.405	21.89
365.616	21.62
365.827	20.76
366.038	25.73
366.25	24.11
366.461	26.36
366.672	34.38
366.883	38.31
367.094	45.22
367.305	41.06
367.516	31.85
367.727	25.45
367.938	17.5
368.149	1.14
368.36	9.81
368.571	13.25
368.781	9.28
368.992	6.18
369.203	7.43
369.414	-5.95
369.625	-1.95
369.836	-1.14
370.047	2.77
370.258	4.96
370.468	14.04
370.679	10.42
370.89	11.13
371.101	2.17
371.312	-0.33
371.522	0.13
371.733	0.99
371.944	0.98
372.155	22.3
372.365	26.27
372.576	22.85
372.787	23.09
372.997	27.9
373.208	15.54
373.419	13.25
373.629	9.55
373.84	5.34
374.05	5.12
374.261	1.28
374.472	0.97
374.682	3.96
374.893	11.35
375.103	-0.6
375.314	10.62
375.524	5.78
375.735	6.53
375.945	11.56
376.156	16.87
376.366	6.85
376.577	16.9
376.787	17.15
376.997	16.47
377.208	14.86
377.418	11.29
377.629	7.35
377.839	12.27
378.049	0.69
378.26	6.65
378.47	11.32
378.68	22.42
378.89	12.65
379.101	16.68
379.311	17.13
379.521	19.33
379.732	9.25
379.942	4.33
380.152	-4.56
380.362	-7.52
380.572	-14.2
380.783	-4.76
380.993	13.14
381.203	20.58
381.413	23.79
381.623	28.01
381.833	22.53
382.043	8.91
382.253	-1.96
382.463	-1.98
382.674	0.24
382.884	3.9
383.094	12.13
383.304	25.43
383.514	18.63
383.724	20.73
383.934	18.24
384.144	20.47
384.353	7.32
384.563	2.74
384.773	1.29
384.983	6.86
385.193	4.69
385.403	10.73
385.613	12.49
385.823	9.9
386.033	3.33
386.242	0.81
386.452	-1.48
386.662	5.39
386.872	8.94
387.082	8.06
387.291	8.7
387.501	6.94
387.711	8.44
387.921	2.72
388.13	5.61
388.34	9.06
388.55	14.14
388.759	9.05
388.969	11.58
389.179	12.57
389.388	12.63
389.598	10.84
389.807	11.03
390.017	8.48
390.227	6.49
390.436	2.96
390.646	5.34
390.855	4.6
391.065	4.78
391.274	5.33
391.484	4.88
391.693	0.52
391.903	0.91
392.112	2.63
392.322	3.41
392.531	5.75
392.74	8.98
392.95	10.45
393.159	9.34
393.369	9.09
393.578	7.39
393.787	5.06
393.997	4.04
394.206	5.39
394.415	6.62
394.625	7.82
394.834	8.7
395.043	8.35
395.252	6.84
395.462	5.3
395.671	3.81
395.88	3.71
396.089	3.44
396.298	3.39
396.508	4.4
396.717	4.87
396.926	5.09
397.135	4.9
397.344	5.17
397.553	5.49
397.762	6.04
397.971	5.3
398.181	5.46
398.39	5.33
398.599	4.73
398.808	4.21
399.017	5.03
399.226	5.48
399.435	5.29
399.644	4.81
399.853	5.1
400.062	4.86
400.27	4.14
400.479	4.28
400.688	4.91
400.897	4.78
401.106	4.68
401.315	4.95
401.524	4.81
401.733	4.63
401.941	4.91
402.15	4.9
402.359	4.75
402.568	5.01
402.777	4.86
402.985	4.71
403.194	4.57
403.403	4.63
403.612	4.32
403.82	4.19
404.029	4.03
404.238	4.31
404.446	4.47
404.655	4.54
404.864	4.59
405.072	4.64
405.281	4.46
405.489	4.41
405.698	4.45
405.906	4.39
406.115	4.43
406.324	4.37
406.532	4.2
406.741	4.07
406.949	4.11
407.158	4.03
407.366	3.93
407.574	3.96
407.783	3.97
407.991	3.99
408.2	4.2
408.408	4.44
408.617	4.37
408.825	4.43
409.033	4.5
409.242	4.16
409.45	4.14
409.658	4.09
409.867	4.04
410.075	4.03
410.283	4.08
410.491	3.94
410.7	3.95
410.908	4.04
411.116	3.93
411.324	3.94
411.533	3.88
411.741	4
411.949	3.95
412.157	3.97
412.365	3.99
412.573	3.99
412.781	3.87
412.99	3.87
413.198	3.92
413.406	3.92
413.614	3.92
413.822	3.89
414.03	4
414.238	3.81
414.446	3.74
414.654	3.68
414.862	3.74
415.07	3.52
415.278	3.54
415.486	3.45
415.694	3.45
415.902	3.52
416.109	3.54
416.317	3.64
416.525	3.66
416.733	3.75
416.941	3.64
417.149	3.67
417.357	3.77
417.564	3.72
417.772	3.6
417.98	3.63
418.188	3.54
418.395	3.4
418.603	3.5
418.811	3.54
419.019	3.64
419.226	3.79
419.434	3.83
419.642	3.8
419.849	3.78
420.057	3.63
420.265	3.48
420.472	3.36
420.68	3.29
420.887	3.32
421.095	3.35
421.302	3.29
421.51	3.28
421.717	3.22
421.925	3.19
422.132	3.17
422.34	3.33
422.547	3.44
422.755	3.5
422.962	3.51
423.17	3.46
423.377	3.3
423.585	3.17
423.792	3.17
423.999	3.03
424.207	3.09
424.414	3.16
424.621	3.19
424.829	3.06
425.036	3.18
425.243	3.15
425.451	3.33
425.658	3.33
425.865	3.54
426.072	3.37
426.28	3.44
426.487	3.18
426.694	3.21
426.901	3.02
427.108	3.11
427.315	2.99
427.523	3.07
427.73	3.04
427.937	3.17
428.144	3.15
428.351	3.25
428.558	3.15
428.765	3.23
428.972	3.2
429.179	3.23
429.386	3.38
429.593	3.51
429.8	3.38
430.007	3.41
430.214	3.6
430.421	3.54
430.628	3.38
430.835	3.36
431.042	3.37
431.249	3.24
431.456	3.02
431.662	3.07
431.869	3.15
432.076	3.25
432.283	3.08
432.49	3.18
432.697	3.18
432.903	3.12
433.11	2.99
433.317	3.15
433.524	3.27
433.73	3.39
433.937	3.42
434.144	3.41
434.35	3.42
434.557	3.34
434.764	3.27
434.97	3.26
435.177	3.32
435.384	3.36
435.59	3.33
435.797	3.44
436.003	3.47
436.21	3.44
436.416	3.45
436.623	3.51
436.829	3.42
437.036	3.47
437.242	3.43
437.449	3.3
437.655	3.29
437.862	3.37
438.068	3.36
438.275	3.44
438.481	3.62
438.687	3.63
438.894	3.6
439.1	3.64
439.307	3.66
439.513	3.58
439.719	3.54
439.926	3.5
440.132	3.54
440.338	3.57
440.544	3.61
440.751	3.65
440.957	3.72
441.163	3.59
441.369	3.65
441.575	3.65
441.782	3.76
441.988	3.73
442.194	3.8
442.4	3.72
442.606	3.71
442.812	3.68
443.018	3.74
443.224	3.7
443.431	3.72
443.637	3.62
443.843	3.57
444.049	3.53
444.255	3.54
444.461	3.58
444.667	3.64
444.873	3.67
445.079	3.67
445.284	3.69
445.49	3.71
445.696	3.74
445.902	3.74
446.108	3.86
446.314	3.85
446.52	3.78
446.726	3.79
446.931	3.83
447.137	3.8
447.343	3.84
447.549	3.86
447.755	3.9
447.96	3.84
448.166	3.78
448.372	3.81
448.578	3.82
448.783	3.77
448.989	3.86
449.195	3.83
449.4	3.78
449.606	3.73
449.812	3.75
450.017	3.79
450.223	3.83
450.428	3.86
450.634	3.92
450.84	3.95
451.045	3.87
451.251	3.83
451.456	3.86
451.662	3.88
451.867	3.87
452.073	3.83
452.278	3.83
452.483	3.72
452.689	3.78
452.894	3.74
453.1	3.8
453.305	3.72
453.51	3.86
453.716	3.83
453.921	3.92
454.127	3.89
454.332	4.02
454.537	3.96
454.742	3.82
454.948	3.8
455.153	3.82
455.358	3.75
455.563	3.7
455.769	3.87
455.974	3.78
456.179	3.76
456.384	3.73
456.589	3.77
456.795	3.56
457	3.58
457.205	3.67
457.41	3.72
457.615	3.73
457.82	3.83
458.025	3.91
458.23	3.8
458.435	3.8
458.64	3.75
458.845	3.76
459.05	3.75
459.255	3.83
459.46	3.83
459.665	3.84
459.87	3.93
460.075	3.98
460.28	3.9
460.485	3.95
460.69	4.05
460.895	3.93
461.099	3.86
461.304	3.88
461.509	3.89
461.714	3.87
461.919	3.92
462.123	3.99
462.328	3.98
462.533	3.94
462.738	3.97
462.942	3.91
463.147	3.84
463.352	3.79
463.556	3.81
463.761	3.63
463.966	3.63
464.17	3.66
464.375	3.76
464.58	3.86
464.784	3.98
464.989	4.11
465.193	4.06
465.398	4.04
465.602	3.95
465.807	3.95
466.011	3.9
466.216	3.94
466.42	3.88
466.625	3.92
466.829	3.99
467.034	3.97
467.238	4.03
467.443	4.07
467.647	3.99
467.851	4.01
468.056	4.03
468.26	4.02
468.464	4.11
468.669	4.16
468.873	4.21
469.077	4.21
469.282	4.23
469.486	4.11
469.69	4.17
469.894	4.12
470.099	4.17
470.303	4.21
