Data from Ofra_PS_Phys_2CX10_Reflection_3.txt Node
Date: Tue Jul 20 14:48:27 EDT 2021
User: USUARIO
Spectrometer: FLMT01687
Trigger mode: 0
Integration Time (sec): 1.200000E0
Scans to average: 2
Electric dark correction enabled: true
Nonlinearity correction enabled: false
Boxcar width: 2
XAxis mode: Wavelengths
Number of Pixels in Spectrum: 3648
>>>>>Begin Spectral Data<<<<<
179.494	44.74
179.716	234.85
179.937	-0.51
180.158	17.04
180.38	66.48
180.601	104.49
180.823	379.84
181.044	274.94
181.265	-489.79
181.486	-206.51
181.708	134.46
181.929	78.42
182.15	187
182.372	-1717.89
182.593	263.67
182.814	-6166.67
183.035	-58.64
183.257	62.81
183.478	138.49
183.699	69.22
183.92	70.6
184.141	58.08
184.363	40.92
184.584	18.44
184.805	6.46
185.026	17.25
185.247	9.83
185.468	20.89
185.689	36.44
185.91	35.94
186.132	42.83
186.353	61.13
186.574	56.63
186.795	50.05
187.016	47.24
187.237	40.98
187.458	29.69
187.679	26.52
187.9	28.28
188.121	8.03
188.342	15.44
188.563	41.27
188.784	32.91
189.005	46.58
189.226	62.53
189.447	56.33
189.667	30.86
189.888	39.96
190.109	22.19
190.33	28.89
190.551	26.56
190.772	27.83
190.993	8.44
191.214	17.42
191.434	18.67
191.655	18.85
191.876	5.3
192.097	14.8
192.318	25.17
192.538	16.41
192.759	18.4
192.98	32.83
193.201	37.6
193.421	13.02
193.642	31.64
193.863	38.74
194.083	44.6
194.304	43.61
194.525	48.01
194.745	53.01
194.966	41.43
195.187	24.24
195.407	15.53
195.628	28.71
195.848	16.58
196.069	11.11
196.29	29.14
196.51	44.61
196.731	41.56
196.951	30.8
197.172	35.62
197.392	28.55
197.613	16.67
197.833	17.12
198.054	34.85
198.274	39.08
198.495	52.8
198.715	45.3
198.936	50.3
199.156	31.82
199.377	-44.43
199.597	-52.46
199.817	10.58
200.038	-5.18
200.258	6.87
200.479	44.36
200.699	32.06
200.919	25.68
201.14	62.44
201.36	61.97
201.58	68.16
201.801	74.08
202.021	57.8
202.241	53.1
202.461	52.86
202.682	40.47
202.902	28.85
203.122	29.67
203.342	20.6
203.563	18.71
203.783	21.57
204.003	16.09
204.223	38.75
204.443	43.43
204.663	39.89
204.884	62.25
205.104	72.87
205.324	49.45
205.544	20.11
205.764	23.47
205.984	2.14
206.204	-14.66
206.424	-6.72
206.644	-2.3
206.864	-9.83
207.084	-7.2
207.304	9.69
207.525	-2.34
207.745	19.4
207.964	31.88
208.184	44.36
208.404	36.35
208.624	53.48
208.844	37.04
209.064	40.88
209.284	44.36
209.504	48.35
209.724	40.35
209.944	59.76
210.164	57.49
210.384	64.89
210.604	50.28
210.823	54.06
211.043	45.9
211.263	33.89
211.483	10.26
211.703	32.49
211.922	38.23
212.142	32.76
212.362	29.97
212.582	25.99
212.801	15.56
213.021	9.15
213.241	8.83
213.461	-4.01
213.68	10.61
213.9	29.57
214.12	36.19
214.339	37.91
214.559	47.88
214.779	56.02
214.998	42.69
215.218	24.24
215.438	25.6
215.657	24.54
215.877	19.48
216.096	24.84
216.316	37.47
216.535	37.47
216.755	45.88
216.974	40.23
217.194	35.18
217.413	38.73
217.633	36.18
217.852	31.72
218.072	33.25
218.291	32.52
218.511	19.72
218.73	12.8
218.95	21.99
219.169	17.54
219.389	21.05
219.608	30.98
219.827	35.24
220.047	29.84
220.266	38.51
220.485	31.71
220.705	38.86
220.924	53.11
221.143	56.19
221.363	55.93
221.582	45.65
221.801	31.37
222.021	31.57
222.24	19.53
222.459	15.48
222.678	29.72
222.897	39.09
223.117	35.96
223.336	24.77
223.555	12.22
223.774	2.07
223.993	2.05
224.213	-5.78
224.432	12.41
224.651	32.5
224.87	37.11
225.089	29.54
225.308	51.76
225.527	44.43
225.746	36.5
225.965	29.33
226.184	26.81
226.404	6.81
226.623	28.5
226.842	27.36
227.061	37.66
227.28	45.84
227.499	60.82
227.718	51.84
227.936	49.24
228.155	38.54
228.374	31.25
228.593	22.09
228.812	21.95
229.031	19.81
229.25	15.05
229.469	18.61
229.688	15.48
229.907	18.91
230.125	18.41
230.344	16.67
230.563	19.63
230.782	31.96
231.001	30.08
231.22	36.61
231.438	45.01
231.657	55.23
231.876	48.04
232.095	53.61
232.313	57.45
232.532	65.23
232.751	59.55
232.969	54.03
233.188	42.37
233.407	30.95
233.625	1.4
233.844	-2.21
234.063	9.79
234.281	9.36
234.5	10.47
234.719	24.61
234.937	37.53
235.156	45.1
235.374	57.09
235.593	54.01
235.811	55.64
236.03	48.87
236.249	43.79
236.467	36.95
236.686	27.46
236.904	17.96
237.123	20.11
237.341	12.79
237.559	20.9
237.778	33.66
237.996	43.18
238.215	41.92
238.433	49.83
238.652	45.07
238.87	48.69
239.088	56.04
239.307	49.69
239.525	40.43
239.743	38.38
239.962	27.72
240.18	16.96
240.398	18.51
240.617	17.08
240.835	21.1
241.053	29.23
241.271	44.22
241.49	44.15
241.708	61.23
241.926	72.32
242.144	81.23
242.363	76.22
242.581	79.67
242.799	79.75
243.017	57.72
243.235	50.93
243.453	51.15
243.672	39.92
243.89	26.97
244.108	23.96
244.326	1.01
244.544	-7.42
244.762	6.08
244.98	7.02
245.198	8.67
245.416	15.24
245.634	15.25
245.852	28.57
246.07	33.36
246.288	38.99
246.506	27.22
246.724	26.47
246.942	15.99
247.16	23.72
247.378	25.39
247.596	47.52
247.814	51.1
248.032	55.18
248.25	51.12
248.468	52.12
248.685	34
248.903	28.84
249.121	39.42
249.339	34.28
249.557	38.32
249.775	50.21
249.992	50.33
250.21	45.94
250.428	43.04
250.646	36.75
250.863	30.4
251.081	37.6
251.299	40.21
251.517	52.72
251.734	52.2
251.952	45.74
252.17	40.78
252.387	37.44
252.605	32.87
252.823	37.48
253.04	37.62
253.258	38.67
253.475	43.93
253.693	42.76
253.911	42.8
254.128	35.68
254.346	31.37
254.563	1.04
254.781	2.03
254.998	-22.36
255.216	2.2
255.433	24.7
255.651	44.02
255.868	44.81
256.086	46.95
256.303	46.98
256.521	40.31
256.738	35.1
256.956	27.33
257.173	27.92
257.39	17.58
257.608	16.1
257.825	23.31
258.043	18.61
258.26	15.83
258.477	22.41
258.695	9.51
258.912	15.64
259.129	33.56
259.346	36.21
259.564	34.04
259.781	36.17
259.998	49.76
260.216	39.75
260.433	50.12
260.65	49.12
260.867	50.12
261.084	21.79
261.302	29.06
261.519	-0.35
261.736	2.14
261.953	0.53
262.17	19.79
262.387	24.92
262.604	37.89
262.822	50.72
263.039	43.02
263.256	26.57
263.473	22.97
263.69	17.95
263.907	2.45
264.124	18.12
264.341	36.39
264.558	36.44
264.775	40.58
264.992	47.67
265.209	45.51
265.426	47.62
265.643	44.98
265.86	49.95
266.077	63.32
266.294	50.3
266.51	45.31
266.727	44.84
266.944	39.51
267.161	29.57
267.378	41.77
267.595	41.53
267.812	35.69
268.028	42.21
268.245	49.34
268.462	41.61
268.679	26.67
268.896	28.63
269.112	35.85
269.329	30.44
269.546	23.56
269.763	34.17
269.979	34.81
270.196	24.19
270.413	31.81
270.629	39.07
270.846	50.18
271.063	61.93
271.279	56.18
271.496	46.49
271.712	56.08
271.929	50.52
272.146	53.61
272.362	46.19
272.579	54.1
272.795	38.68
273.012	37.33
273.228	34.18
273.445	37.29
273.661	30.33
273.878	21.24
274.094	14.63
274.311	1.85
274.527	-0.16
274.744	-4.5
274.96	12.98
275.177	15.8
275.393	3.94
275.609	19.48
275.826	30.33
276.042	34.85
276.259	25.36
276.475	31
276.691	26.87
276.908	19.43
277.124	29.32
277.34	31.41
277.557	38.46
277.773	35
277.989	46.26
278.205	36.28
278.422	32.77
278.638	34.41
278.854	47.52
279.07	34.42
279.286	37.41
279.503	41.84
279.719	37.05
279.935	23.65
280.151	23.34
280.367	28.64
280.583	33.13
280.799	32.58
281.016	46.83
281.232	47.24
281.448	47
281.664	45.28
281.88	45.73
282.096	45.66
282.312	51.26
282.528	52.86
282.744	54.29
282.96	55.37
283.176	52.98
283.392	43.92
283.608	37.2
283.824	37.32
284.04	30.61
284.256	20.27
284.471	16.61
284.687	14.43
284.903	6.3
285.119	20.65
285.335	39.98
285.551	48.21
285.767	41.36
285.982	51.76
286.198	35.79
286.414	29.43
286.63	36.8
286.846	32.68
287.061	29.92
287.277	27.72
287.493	24.85
287.709	17.49
287.924	24
288.14	22.85
288.356	30.82
288.571	26.59
288.787	14.18
289.003	18.76
289.218	16.65
289.434	19.88
289.65	19.23
289.865	17.5
290.081	19.77
290.296	12.41
290.512	-5.45
290.727	-14.45
290.943	-1.32
291.159	-7.38
291.374	-4.33
291.59	-2.65
291.805	6.84
292.021	6.42
292.236	4.66
292.451	26.23
292.667	29.42
292.882	43.84
293.098	50.59
293.313	56.98
293.529	39
293.744	34.28
293.959	8.49
294.175	-0.37
294.39	-12.04
294.605	-3.1
294.821	1.86
295.036	21.04
295.251	36.24
295.467	36.28
295.682	30.13
295.897	29.56
296.112	23.32
296.328	15.69
296.543	5.47
296.758	13.07
296.973	13.85
297.188	21.38
297.404	18.75
297.619	21.03
297.834	26.4
298.049	28.57
298.264	34.46
298.479	35.16
298.694	41.06
298.909	30.85
299.125	45.92
299.34	16.7
299.555	13.23
299.77	23.3
299.985	19.39
300.2	4.58
300.415	11.32
300.63	22.85
300.845	11.14
301.06	17.83
301.275	9.93
301.49	10.19
301.704	18.34
301.919	28.15
302.134	25.48
302.349	31.35
302.564	34.28
302.779	18.4
302.994	8.14
303.209	27.62
303.423	32.19
303.638	39.56
303.853	58.74
304.068	54.62
304.283	30.89
304.497	33.92
304.712	22.8
304.927	36.34
305.142	39.1
305.356	40.1
305.571	27.09
305.786	39.49
306	10.91
306.215	8.3
306.43	17.48
306.644	18.85
306.859	26
307.074	36.47
307.288	36.06
307.503	35.19
307.717	42.56
307.932	39.68
308.147	29.38
308.361	34.61
308.576	19.13
308.79	8.91
309.005	8.47
309.219	5.41
309.434	6.43
309.648	25.5
309.863	34.23
310.077	34.71
310.292	38.35
310.506	37.94
310.72	29.19
310.935	50.07
311.149	48.38
311.364	37.58
311.578	48.08
311.792	41.04
312.007	31.27
312.221	26.92
312.435	44
312.649	34.93
312.864	43.18
313.078	48.14
313.292	46.24
313.507	24.25
313.721	12.68
313.935	23.11
314.149	17.58
314.363	21.52
314.578	11.74
314.792	11.34
315.006	15.92
315.22	13.73
315.434	21.13
315.648	24.88
315.862	24.84
316.077	15.51
316.291	23.34
316.505	22.59
316.719	27.93
316.933	31.25
317.147	21.78
317.361	2.44
317.575	-26.79
317.789	-13.86
318.003	-12.63
318.217	-3.9
318.431	18.51
318.645	31.81
318.859	18.87
319.073	18.36
319.287	17.12
319.5	-3.17
319.714	5.33
319.928	31.63
320.142	32.99
320.356	35.24
320.57	48.32
320.784	46.25
320.997	42.07
321.211	52.48
321.425	65.86
321.639	49.89
321.853	48.83
322.066	51.67
322.28	18.44
322.494	14.11
322.707	23.69
322.921	17.26
323.135	5.6
323.349	10.88
323.562	8
323.776	5.97
323.989	3.95
324.203	4.88
324.417	6.64
324.63	4.39
324.844	9.99
325.057	21.31
325.271	36.81
325.485	33.87
325.698	37.78
325.912	32.23
326.125	23.21
326.339	17.84
326.552	19.75
326.766	19.48
326.979	18.26
327.193	25.2
327.406	20.45
327.619	21.35
327.833	32.76
328.046	27.26
328.26	32.52
328.473	38.92
328.686	47.51
328.9	32.06
329.113	40.17
329.326	23.7
329.54	19.23
329.753	8.34
329.966	21.16
330.179	23.17
330.393	36.35
330.606	39.59
330.819	41.52
331.032	40.08
331.246	37.21
331.459	45.65
331.672	34.89
331.885	32.34
332.098	23.57
332.311	26.88
332.525	1.41
332.738	11.81
332.951	23.3
333.164	21.89
333.377	19.91
333.59	23.75
333.803	23.4
334.016	12.79
334.229	13.87
334.442	19.6
334.655	19.91
334.868	29.34
335.081	27.36
335.294	40.85
335.507	32.86
335.72	33.48
335.933	23.63
336.146	30.78
336.359	26.25
336.572	26.92
336.785	8.59
336.997	5.61
337.21	3.5
337.423	-0.34
337.636	-11.03
337.849	4.82
338.062	18.11
338.274	23.29
338.487	22.41
338.7	26.3
338.913	19.7
339.125	14.01
339.338	2.12
339.551	0.15
339.763	3.66
339.976	31.15
340.189	24.82
340.402	42.47
340.614	42.89
340.827	43.44
341.039	34.74
341.252	41.28
341.465	30.15
341.677	33.02
341.89	27.33
342.102	18.85
342.315	29.84
342.527	31.97
342.74	27.1
342.952	35.38
343.165	38
343.377	25.9
343.59	25.78
343.802	26.98
344.015	22.59
344.227	27.77
344.44	38.75
344.652	37.73
344.864	25.27
345.077	17.42
345.289	20.55
345.502	14.83
345.714	11.67
345.926	15.71
346.139	33.41
346.351	22.4
346.563	25.71
346.775	31.52
346.988	32.66
347.2	14.17
347.412	18.53
347.624	22.77
347.837	24.18
348.049	32.37
348.261	31.12
348.473	34.07
348.685	27.63
348.897	25.67
349.11	16.75
349.322	23.35
349.534	19.78
349.746	18.58
349.958	21.91
350.17	32.24
350.382	26.6
350.594	27.79
350.806	29.3
351.018	25.7
351.23	19.86
351.442	29.18
351.654	25.44
351.866	34.18
352.078	37.14
352.29	47.18
352.502	40.25
352.714	33.15
352.926	30.08
353.138	26.46
353.35	18.95
353.561	13.2
353.773	17.71
353.985	15.29
354.197	18.24
354.409	7.52
354.621	14.13
354.832	19.34
355.044	21.87
355.256	19.77
355.468	33.45
355.679	40.1
355.891	40.59
356.103	34.07
356.314	32.35
356.526	27.05
356.738	25.1
356.949	24.27
357.161	28.74
357.373	33.59
357.584	37.37
357.796	38.87
358.008	31.25
358.219	29.76
358.431	27.98
358.642	36.78
358.854	35.83
359.065	33.71
359.277	25.53
359.488	16.78
359.7	11.62
359.911	1.13
360.123	8.97
360.334	12.95
360.546	22.83
360.757	23.43
360.969	30.33
361.18	29.84
361.391	27.69
361.603	33.63
361.814	26.58
362.025	21.13
362.237	22.23
362.448	25.19
362.659	6.55
362.871	5.23
363.082	13.26
363.293	9.55
363.504	2.57
363.716	13.66
363.927	13.77
364.138	19.15
364.349	25.28
364.56	25.26
364.772	24.87
364.983	26.55
365.194	19.66
365.405	13.27
365.616	14.33
365.827	5.18
366.038	7.64
366.25	12.49
366.461	15.72
366.672	16.02
366.883	21.52
367.094	28.09
367.305	30.67
367.516	32.15
367.727	31.45
367.938	41.84
368.149	30.6
368.36	27.88
368.571	23.42
368.781	24.84
368.992	19.13
369.203	14.26
369.414	0.8
369.625	11.15
369.836	7.57
370.047	6.85
370.258	17.39
370.468	27.28
370.679	16.6
370.89	20.01
371.101	27.91
371.312	13.81
371.522	17.62
371.733	28.32
371.944	30.19
372.155	29.67
372.365	40.08
372.576	30.95
372.787	16.11
372.997	10.11
373.208	-4.89
373.419	-4.27
373.629	-4.03
373.84	8.14
374.05	20.52
374.261	23.09
374.472	25.04
374.682	28.72
374.893	28.38
375.103	19.06
375.314	30.87
375.524	22.96
375.735	24.43
375.945	30
376.156	33.49
376.366	17.91
376.577	17.93
376.787	16.26
376.997	12.49
377.208	18.39
377.418	18.49
377.629	30.91
377.839	30.98
378.049	30.02
378.26	20.34
378.47	22.13
378.68	22.74
378.89	17.07
379.101	14.49
379.311	19.93
379.521	22.86
379.732	16.66
379.942	18.2
380.152	15.67
380.362	13.38
380.572	15.49
380.783	18.18
380.993	20.09
381.203	21.83
381.413	27.79
381.623	16.3
381.833	24.46
382.043	16.86
382.253	10.67
382.463	5.47
382.674	18.3
382.884	11.43
383.094	15.68
383.304	26.63
383.514	23.23
383.724	25.47
383.934	24.97
384.144	26.08
384.353	19.2
384.563	15.8
384.773	15.98
384.983	24.59
385.193	24.51
385.403	25.04
385.613	30.87
385.823	25.17
386.033	16.6
386.242	12.72
386.452	16.86
386.662	19.52
386.872	21.22
387.082	20.21
387.291	20.28
387.501	17.01
387.711	9.1
387.921	8.65
388.13	6.47
388.34	12.72
388.55	13.82
388.759	14.5
388.969	12.01
389.179	15
389.388	13.37
389.598	9.63
389.807	9.14
390.017	11.72
390.227	9.88
390.436	6.88
390.646	12.31
390.855	16.07
391.065	14.71
391.274	15.69
391.484	15.67
391.693	9.99
391.903	8.39
392.112	8.29
392.322	6.62
392.531	7.39
392.74	10.25
392.95	10.02
393.159	10.9
393.369	10.77
393.578	9.71
393.787	7.63
393.997	8.07
394.206	7
394.415	9.13
394.625	9.85
394.834	10.27
395.043	9.48
395.252	8.97
395.462	7.28
395.671	6.4
395.88	6.35
396.089	6.95
396.298	6.65
396.508	8.5
396.717	8.7
396.926	8.68
397.135	8.05
397.344	8.34
397.553	7.62
397.762	7.54
397.971	7.01
398.181	6.43
398.39	6.1
398.599	5.66
398.808	5.53
399.017	6.54
399.226	7.21
399.435	7.74
399.644	7.47
399.853	7.98
400.062	7.42
400.27	7.29
400.479	6.73
400.688	7.13
400.897	6.86
401.106	7.03
401.315	6.75
401.524	7.07
401.733	6.93
401.941	7.07
402.15	7.02
402.359	7.04
402.568	7.04
402.777	6.84
402.985	6.61
403.194	6.41
403.403	6.4
403.612	6.28
403.82	6.15
404.029	5.78
404.238	5.91
404.446	6.06
404.655	5.86
404.864	5.97
405.072	6.18
405.281	6.22
405.489	6.17
405.698	6.31
405.906	6.26
406.115	6.29
406.324	6.14
406.532	6.01
406.741	5.79
406.949	5.77
407.158	5.77
407.366	5.71
407.574	5.83
407.783	5.83
407.991	5.9
408.2	6.06
408.408	6.13
408.617	5.82
408.825	5.89
409.033	5.95
409.242	5.65
409.45	5.66
409.658	5.66
409.867	5.62
410.075	5.44
410.283	5.5
410.491	5.38
410.7	5.43
410.908	5.5
411.116	5.46
411.324	5.41
411.533	5.38
411.741	5.46
411.949	5.41
412.157	5.48
412.365	5.52
412.573	5.54
412.781	5.44
412.99	5.56
413.198	5.48
413.406	5.39
413.614	5.21
413.822	5.22
414.03	5.12
414.238	5.03
414.446	5.1
414.654	5.17
414.862	5.21
415.07	5.08
415.278	5.01
415.486	4.9
415.694	4.91
415.902	4.84
416.109	4.77
416.317	4.94
416.525	4.96
416.733	5.02
416.941	5.03
417.149	5.1
417.357	5.03
417.564	4.9
417.772	5.04
417.98	4.99
418.188	5.03
418.395	5.13
418.603	5.23
418.811	5.04
419.019	4.91
419.226	4.99
419.434	4.92
419.642	4.88
419.849	4.91
420.057	4.95
420.265	4.94
420.472	4.78
420.68	4.85
420.887	4.75
421.095	4.8
421.302	4.57
421.51	4.66
421.717	4.4
421.925	4.3
422.132	4.3
422.34	4.35
422.547	4.24
422.755	4.39
422.962	4.56
423.17	4.52
423.377	4.43
423.585	4.39
423.792	4.32
423.999	4.26
424.207	4.43
424.414	4.63
424.621	4.52
424.829	4.58
425.036	4.55
425.243	4.48
425.451	4.48
425.658	4.68
425.865	4.78
426.072	4.75
426.28	4.63
426.487	4.46
426.694	4.47
426.901	4.25
427.108	4.28
427.315	4.27
427.523	4.26
427.73	4.36
427.937	4.51
428.144	4.49
428.351	4.61
428.558	4.77
428.765	4.71
428.972	4.62
429.179	4.66
429.386	4.65
429.593	4.63
429.8	4.5
430.007	4.58
430.214	4.68
430.421	4.64
430.628	4.45
430.835	4.51
431.042	4.55
431.249	4.52
431.456	4.55
431.662	4.67
431.869	4.86
432.076	4.9
432.283	4.89
432.49	4.97
432.697	4.97
432.903	4.81
433.11	4.69
433.317	4.77
433.524	4.82
433.73	4.85
433.937	4.93
434.144	5.03
434.35	5.06
434.557	4.87
434.764	4.87
434.97	4.76
435.177	4.73
435.384	4.57
435.59	4.63
435.797	4.7
436.003	4.78
436.21	4.82
436.416	5.02
436.623	5.1
436.829	5.05
437.036	5.15
437.242	5.07
437.449	4.97
437.655	4.98
437.862	5.05
438.068	4.93
438.275	4.96
438.481	4.96
438.687	4.87
438.894	4.88
439.1	5
439.307	5.08
439.513	5.05
439.719	5.1
439.926	5.06
440.132	5.1
440.338	5.13
440.544	5.16
440.751	5.22
440.957	5.37
441.163	5.37
441.369	5.43
441.575	5.43
441.782	5.44
441.988	5.34
442.194	5.33
442.4	5.26
442.606	5.32
442.812	5.35
443.018	5.29
443.224	5.27
443.431	5.33
443.637	5.34
443.843	5.37
444.049	5.45
444.255	5.49
444.461	5.48
444.667	5.45
444.873	5.5
445.079	5.53
445.284	5.52
445.49	5.5
445.696	5.52
445.902	5.4
446.108	5.4
446.314	5.41
446.52	5.46
446.726	5.48
446.931	5.49
447.137	5.47
447.343	5.45
447.549	5.42
447.755	5.45
447.96	5.49
448.166	5.52
448.372	5.52
448.578	5.57
448.783	5.48
448.989	5.54
449.195	5.52
449.4	5.5
449.606	5.39
449.812	5.49
450.017	5.47
450.223	5.53
450.428	5.52
450.634	5.59
450.84	5.56
451.045	5.55
451.251	5.42
451.456	5.43
451.662	5.45
451.867	5.51
452.073	5.5
452.278	5.61
452.483	5.68
452.689	5.72
452.894	5.62
453.1	5.62
453.305	5.63
453.51	5.67
453.716	5.65
453.921	5.76
454.127	5.77
454.332	5.68
454.537	5.56
454.742	5.63
454.948	5.64
455.153	5.69
455.358	5.69
455.563	5.72
455.769	5.8
455.974	5.79
456.179	5.73
456.384	5.75
456.589	5.79
456.795	5.66
457	5.58
457.205	5.61
457.41	5.64
457.615	5.6
457.82	5.56
458.025	5.58
458.23	5.51
458.435	5.57
458.64	5.54
458.845	5.59
459.05	5.56
459.255	5.73
459.46	5.68
459.665	5.74
459.87	5.77
460.075	5.9
460.28	5.78
460.485	5.76
460.69	5.8
460.895	5.77
461.099	5.67
461.304	5.8
461.509	5.88
461.714	5.89
461.919	5.87
462.123	5.86
462.328	5.85
462.533	5.83
462.738	5.91
462.942	5.95
463.147	6.02
463.352	5.92
463.556	5.88
463.761	5.71
463.966	5.66
464.17	5.7
464.375	5.78
464.58	5.93
464.784	5.96
464.989	6.03
465.193	5.93
465.398	5.9
465.602	5.86
465.807	5.94
466.011	5.93
466.216	5.93
466.42	5.89
466.625	5.96
466.829	5.95
467.034	5.94
467.238	6.08
467.443	6.11
467.647	6.01
467.851	6.07
468.056	6.06
468.26	6.09
468.464	6.23
468.669	6.18
468.873	6.26
