Data from Ofra_PS_Phys_2GT41_Reflection_3.txt Node
Date: Tue Jul 20 20:42:23 EDT 2021
User: USUARIO
Spectrometer: FLMT01687
Trigger mode: 0
Integration Time (sec): 1.042999E0
Scans to average: 2
Electric dark correction enabled: true
Nonlinearity correction enabled: false
Boxcar width: 2
XAxis mode: Wavelengths
Number of Pixels in Spectrum: 3648
>>>>>Begin Spectral Data<<<<<
179.494	-102.82
179.716	-78.67
179.937	-5.26
180.158	-5.09
180.38	33.75
180.601	119.11
180.823	117.72
181.044	143.6
181.265	-767.42
181.486	-207.92
181.708	16.16
181.929	13.96
182.15	313.86
182.372	107.12
182.593	194.12
182.814	85.12
183.035	67.22
183.257	-9.23
183.478	-149.76
183.699	-161.58
183.92	-74.18
184.141	-200.31
184.363	4.9
184.584	6.3
184.805	18.39
185.026	65.78
185.247	52.71
185.468	31.77
185.689	30.84
185.91	29
186.132	-46.56
186.353	-14.36
186.574	-0.59
186.795	11.78
187.016	31.07
187.237	53.17
187.458	75.16
187.679	65.6
187.9	67.78
188.121	54.55
188.342	64.15
188.563	36.15
188.784	23.14
189.005	19.73
189.226	35.99
189.447	34.28
189.667	28.41
189.888	21.35
190.109	47.43
190.33	45.52
190.551	52.32
190.772	23.81
190.993	21.6
191.214	-16.54
191.434	9.5
191.655	28.1
191.876	37.14
192.097	55.81
192.318	69
192.538	58.3
192.759	44.31
192.98	39.03
193.201	26.27
193.421	41.13
193.642	41.87
193.863	54.72
194.083	51.09
194.304	52.85
194.525	33.03
194.745	29.57
194.966	0.9
195.187	-5.28
195.407	-37.22
195.628	-73.73
195.848	-57.11
196.069	-1.45
196.29	10.43
196.51	6.36
196.731	19.26
196.951	17.96
197.172	6.64
197.392	3.99
197.613	10.15
197.833	9.82
198.054	5.65
198.274	10.13
198.495	9.65
198.715	12.53
198.936	19.04
199.156	30.18
199.377	34.73
199.597	31.8
199.817	39.78
200.038	42.38
200.258	42.94
200.479	41.5
200.699	47.32
200.919	58.67
201.14	62.56
201.36	104.19
201.58	259.81
201.801	157.75
202.021	78.8
202.241	65.63
202.461	38.52
202.682	15.68
202.902	6.99
203.122	15.95
203.342	0.75
203.563	-1.3
203.783	44.15
204.003	52.71
204.223	62.06
204.443	69.74
204.663	68.03
204.884	44.71
205.104	36.29
205.324	39.19
205.544	44.29
205.764	69.97
205.984	74.06
206.204	73.6
206.424	72.34
206.644	71.79
206.864	45.61
207.084	29.94
207.304	53.39
207.525	37.68
207.745	55.94
207.964	26.95
208.184	44.18
208.404	35.62
208.624	39.36
208.844	22.14
209.064	41.98
209.284	14.35
209.504	15.79
209.724	21.38
209.944	20.73
210.164	35.7
210.384	61.25
210.604	47.04
210.823	33.37
211.043	26.6
211.263	18.55
211.483	17.06
211.703	19.05
211.922	24.83
212.142	40.43
212.362	69.73
212.582	28.05
212.801	32.49
213.021	33.05
213.241	32.15
213.461	1.1
213.68	-23.59
213.9	-22.78
214.12	-6.5
214.339	-43.73
214.559	-12.22
214.779	4.24
214.998	13.64
215.218	14.08
215.438	22.12
215.657	24.91
215.877	32.3
216.096	35.47
216.316	23.36
216.535	40.76
216.755	46.7
216.974	67.96
217.194	55.92
217.413	70.05
217.633	58.89
217.852	44.02
218.072	36.69
218.291	34
218.511	32.9
218.73	29.92
218.95	43.23
219.169	32.65
219.389	41.08
219.608	32.05
219.827	54.35
220.047	35.23
220.266	24.59
220.485	33.24
220.705	25.35
220.924	-2.44
221.143	7.77
221.363	14.23
221.582	-0.24
221.801	10.3
222.021	-1.71
222.24	4.2
222.459	17.47
222.678	25.96
222.897	21.48
223.117	40.89
223.336	47.42
223.555	62.05
223.774	48.58
223.993	67.39
224.213	60.33
224.432	53.38
224.651	51.81
224.87	53.05
225.089	26.94
225.308	31.12
225.527	28.04
225.746	7.28
225.965	11.76
226.184	27.9
226.404	19.14
226.623	18.68
226.842	34.84
227.061	44.95
227.28	26.57
227.499	20.89
227.718	34.76
227.936	23.42
228.155	38.23
228.374	37.03
228.593	41.16
228.812	36.96
229.031	40.89
229.25	14.35
229.469	-1.89
229.688	-13.02
229.907	-4.92
230.125	-5.05
230.344	17.86
230.563	51.15
230.782	56.95
231.001	61.77
231.22	51.81
231.438	21.15
231.657	-41.57
231.876	-22.82
232.095	-66.44
232.313	-42.47
232.532	-30.17
232.751	29.65
232.969	12.73
233.188	54.34
233.407	64.27
233.625	61.2
233.844	49.94
234.063	44.51
234.281	43.25
234.5	28.02
234.719	19.27
234.937	10.2
235.156	5.64
235.374	-2.34
235.593	17.98
235.811	21.72
236.03	28.12
236.249	39.1
236.467	49.13
236.686	53.54
236.904	41.43
237.123	27
237.341	39.44
237.559	30.84
237.778	1.99
237.996	-18.75
238.215	-7.15
238.433	5.5
238.652	-0.56
238.87	18.56
239.088	34.11
239.307	28.3
239.525	-6.8
239.743	13.82
239.962	38.13
240.18	40.39
240.398	46.06
240.617	55.1
240.835	29.88
241.053	29.61
241.271	35.06
241.49	31.88
241.708	41.19
241.926	43.83
242.144	24.57
242.363	21.79
242.581	32.36
242.799	29.32
243.017	42.95
243.235	61.11
243.453	49.94
243.672	34.41
243.89	18.24
244.108	9.56
244.326	-11.52
244.544	-2.42
244.762	9.35
244.98	30.93
245.198	32.29
245.416	33.03
245.634	33.22
245.852	40.24
246.07	28.8
246.288	26.23
246.506	36.36
246.724	38.6
246.942	40.92
247.16	70.64
247.378	59.84
247.596	46.34
247.814	35.29
248.032	20.3
248.25	15.98
248.468	10.65
248.685	3.18
248.903	6.01
249.121	3.49
249.339	-4.56
249.557	3.03
249.775	17.35
249.992	15.65
250.21	19.62
250.428	12.58
250.646	3.38
250.863	-33.91
251.081	-38.09
251.299	-22.17
251.517	-9.19
251.734	-5.36
251.952	-24.48
252.17	-13.31
252.387	11.95
252.605	37.54
252.823	33.04
253.04	56.46
253.258	51.91
253.475	37.71
253.693	32.76
253.911	44.83
254.128	18.09
254.346	45.57
254.563	63.69
254.781	43.6
254.998	43.99
255.216	33.47
255.433	25.45
255.651	25.41
255.868	58.48
256.086	58.84
256.303	37.71
256.521	34.76
256.738	12.95
256.956	16.27
257.173	-9.82
257.39	15.6
257.608	6.34
257.825	5.83
258.043	2.24
258.26	17.52
258.477	28.78
258.695	37.22
258.912	36.27
259.129	37.96
259.346	32.69
259.564	22.83
259.781	28.71
259.998	49.5
260.216	42.38
260.433	50.63
260.65	54.27
260.867	56.36
261.084	30.08
261.302	27.09
261.519	20.62
261.736	5.59
261.953	-1.18
262.17	20.14
262.387	23.8
262.604	27.27
262.822	30.03
263.039	29.98
263.256	16.88
263.473	19.44
263.69	6.9
263.907	17.69
264.124	16.02
264.341	46.69
264.558	24.53
264.775	35.25
264.992	40.28
265.209	31.48
265.426	16.81
265.643	22.3
265.86	20.61
266.077	15.3
266.294	28.39
266.51	29.01
266.727	29.23
266.944	24.32
267.161	12.82
267.378	4.46
267.595	19.12
267.812	3.42
268.028	8.05
268.245	18.78
268.462	18.57
268.679	6.15
268.896	24.59
269.112	29.51
269.329	20.44
269.546	25.11
269.763	25.31
269.979	20.41
270.196	15.89
270.413	27.27
270.629	18.5
270.846	16.04
271.063	27.73
271.279	28.92
271.496	28.81
271.712	24.89
271.929	26.58
272.146	-2.03
272.362	1.75
272.579	-1.3
272.795	4.72
273.012	-3.81
273.228	9.87
273.445	-8.3
273.661	5.43
273.878	26.69
274.094	35.59
274.311	20.13
274.527	46.95
274.744	44.64
274.96	47.77
275.177	51.66
275.393	45.63
275.609	17.62
275.826	8.37
276.042	-4.6
276.259	-11.37
276.475	14.34
276.691	29.44
276.908	16.4
277.124	9.34
277.34	13.42
277.557	10.2
277.773	15.54
277.989	15.05
278.205	24.37
278.422	21.22
278.638	23.31
278.854	10.09
279.07	13.39
279.286	8.84
279.503	12.3
279.719	9.31
279.935	29.79
280.151	26.84
280.367	22.22
280.583	16.32
280.799	23.31
281.016	-4.12
281.232	-4.16
281.448	3.79
281.664	13.11
281.88	-2.3
282.096	1.22
282.312	-11.95
282.528	1.18
282.744	3.67
282.96	25.48
283.176	22.57
283.392	23.21
283.608	3.94
283.824	-5.94
284.04	-15.13
284.256	-7.61
284.471	-8.07
284.687	-4.52
284.903	6.15
285.119	14.14
285.335	21.91
285.551	28.36
285.767	39.74
285.982	31.23
286.198	28.88
286.414	22.18
286.63	19.44
286.846	-0.83
287.061	-3.65
287.277	-30.71
287.493	-25.21
287.709	-20.45
287.924	-2.6
288.14	14.51
288.356	24.84
288.571	31.76
288.787	26.69
289.003	27.71
289.218	10.94
289.434	6.65
289.65	21.02
289.865	16.41
290.081	18.91
290.296	31.69
290.512	42.14
290.727	35.31
290.943	42.86
291.159	30.45
291.374	27.55
291.59	20.79
291.805	1.14
292.021	7.43
292.236	15.86
292.451	24.62
292.667	34.1
292.882	40.53
293.098	43.65
293.313	36.51
293.529	29.44
293.744	21.83
293.959	24.53
294.175	20.51
294.39	9
294.605	4.5
294.821	7.01
295.036	3.68
295.251	2.44
295.467	8.04
295.682	-5.44
295.897	-0.42
296.112	7.77
296.328	15.39
296.543	26.29
296.758	33.4
296.973	34.39
297.188	37.96
297.404	26.63
297.619	30.58
297.834	33.82
298.049	18.04
298.264	9.15
298.479	3.46
298.694	4.2
298.909	8.84
299.125	13.59
299.34	6.49
299.555	17.26
299.77	14.31
299.985	22.29
300.2	29.65
300.415	29.19
300.63	18.91
300.845	2.92
301.06	3.53
301.275	-2.19
301.49	5.77
301.704	20.05
301.919	28.23
302.134	12.94
302.349	9.68
302.564	6.75
302.779	4.11
302.994	0.71
303.209	-3.45
303.423	13.76
303.638	29.86
303.853	43.94
304.068	44.24
304.283	52.74
304.497	35.92
304.712	29.95
304.927	24.33
305.142	24.87
305.356	19.35
305.571	28.15
305.786	18.52
306	22.42
306.215	18.9
306.43	21.81
306.644	31.38
306.859	36.98
307.074	29.44
307.288	33.5
307.503	31
307.717	17.19
307.932	24.06
308.147	24.79
308.361	30.42
308.576	30.4
308.79	34.39
309.005	12
309.219	18.53
309.434	-4.1
309.648	11.95
309.863	7.65
310.077	12.6
310.292	14.27
310.506	35.42
310.72	16.7
310.935	26.3
311.149	24.94
311.364	24.82
311.578	24.5
311.792	30.11
312.007	23.81
312.221	31.68
312.435	15.06
312.649	9.89
312.864	6.68
313.078	4.13
313.292	6.75
313.507	14.1
313.721	16.22
313.935	23.43
314.149	30.28
314.363	27.07
314.578	28.19
314.792	23.51
315.006	14.32
315.22	-16.18
315.434	-21.36
315.648	-21.21
315.862	-34.08
316.077	-24.19
316.291	8.57
316.505	22.53
316.719	41.6
316.933	34.7
317.147	18.17
317.361	5.07
317.575	5.59
317.789	-25.22
318.003	-29.18
318.217	-7.94
318.431	12.77
318.645	17.89
318.859	14.65
319.073	13
319.287	-1.16
319.5	-10.2
319.714	-8.47
319.928	22.68
320.142	28.7
320.356	37.64
320.57	37.49
320.784	37.42
320.997	25.88
321.211	21.14
321.425	28.17
321.639	29.83
321.853	28.47
322.066	25.62
322.28	39.14
322.494	40.85
322.707	32.2
322.921	18.93
323.135	21.88
323.349	3.04
323.562	-12.03
323.776	4.5
323.989	25.54
324.203	22.23
324.417	42.67
324.63	53.05
324.844	63.65
325.057	73.17
325.271	72.67
325.485	37.48
325.698	45.3
325.912	46.5
326.125	36.83
326.339	36.88
326.552	52.6
326.766	37.12
326.979	22.54
327.193	27.13
327.406	17.17
327.619	22.09
327.833	13.27
328.046	7.2
328.26	-5.83
328.473	-4.29
328.686	-4.68
328.9	8.28
329.113	4.04
329.326	9.48
329.54	25.08
329.753	25.07
329.966	23.98
330.179	25.81
330.393	29.36
330.606	32.21
330.819	23.14
331.032	25.48
331.246	32.92
331.459	35.25
331.672	15.26
331.885	28.74
332.098	23
332.311	18.73
332.525	22.81
332.738	45.25
332.951	32.16
333.164	38.41
333.377	47.38
333.59	34.73
333.803	24.77
334.016	26.76
334.229	14.86
334.442	-1.79
334.655	-17.67
334.868	-29.54
335.081	-17.75
335.294	-1.79
335.507	4.17
335.72	13.06
335.933	9.57
336.146	12.1
336.359	1.39
336.572	-6.78
336.785	3.3
336.997	16.7
337.21	9.57
337.423	33.84
337.636	37.92
337.849	18.3
338.062	35.26
338.274	52.19
338.487	46.2
338.7	49.21
338.913	48.62
339.125	34.07
339.338	16.5
339.551	20.55
339.763	27.46
339.976	30.18
340.189	27.57
340.402	41.78
340.614	34.37
340.827	23.56
341.039	22.68
341.252	22.56
341.465	-6.33
341.677	-17.37
341.89	-36.56
342.102	-14.61
342.315	-4.14
342.527	7.31
342.74	11.08
342.952	30.43
343.165	31.94
343.377	38.94
343.59	37.41
343.802	38.45
344.015	23.41
344.227	21.95
344.44	15.62
344.652	16.03
344.864	18
345.077	20.33
345.289	19.75
345.502	13.58
345.714	-19.55
345.926	-35.32
346.139	-9.81
346.351	-6.4
346.563	6.31
346.775	20.98
346.988	27.06
347.2	23.47
347.412	33.04
347.624	33.31
347.837	38.83
348.049	16.37
348.261	35.14
348.473	-2.01
348.685	5.76
348.897	16.94
349.11	40.98
349.322	30.7
349.534	41.73
349.746	33.89
349.958	26.31
350.17	17.51
350.382	33.21
350.594	36.98
350.806	29.96
351.018	41.12
351.23	41.13
351.442	24.99
351.654	23.52
351.866	32.15
352.078	21.1
352.29	26.71
352.502	25.16
352.714	21.22
352.926	21.59
353.138	18.72
353.35	-2.26
353.561	-4.1
353.773	2.23
353.985	15.53
354.197	20.76
354.409	39.64
354.621	47.55
354.832	47.31
355.044	30.85
355.256	27.59
355.468	23.76
355.679	17.49
355.891	4.22
356.103	-1.32
356.314	14.6
356.526	23.98
356.738	22.33
356.949	36.51
357.161	55.43
357.373	48.76
357.584	38.97
357.796	38.58
358.008	23.32
358.219	5.94
358.431	5.69
358.642	4.42
358.854	6.96
359.065	8.16
359.277	15.68
359.488	15.25
359.7	14.91
359.911	15.54
360.123	19.29
360.334	18.68
360.546	35
360.757	36.16
360.969	30.7
361.18	31.18
361.391	32.34
361.603	17.37
361.814	21.66
362.025	19.66
362.237	20.67
362.448	17.21
362.659	7.25
362.871	4.89
363.082	12.66
363.293	4.66
363.504	-5.24
363.716	2.8
363.927	-10.04
364.138	-21.1
364.349	-9.98
364.56	-5.94
364.772	4.47
364.983	9.21
365.194	6.27
365.405	-1.95
365.616	-9.31
365.827	-15.39
366.038	-10.49
366.25	-6.39
366.461	0.39
366.672	10.13
366.883	5.57
367.094	15.61
367.305	12.62
367.516	19.49
367.727	14.65
367.938	22.04
368.149	16.14
368.36	20.67
368.571	7.74
368.781	6.43
368.992	-3.3
369.203	0.04
369.414	-4.41
369.625	-11.23
369.836	-5.31
370.047	12.04
370.258	3.4
370.468	16.23
370.679	27.85
370.89	23.77
371.101	32.43
371.312	35.88
371.522	31.34
371.733	24.66
371.944	35.79
372.155	26.52
372.365	31.7
372.576	34.91
372.787	31.86
372.997	30.12
373.208	19.5
373.419	6.43
373.629	-9.87
373.84	-10.16
374.05	-27.18
374.261	-6.01
374.472	7.15
374.682	13.46
374.893	18.31
375.103	20.34
375.314	15.51
375.524	9.79
375.735	0.03
375.945	-2.28
376.156	2.72
376.366	13.74
376.577	17.69
376.787	18.89
376.997	22.53
377.208	19.36
377.418	9.33
377.629	9.23
377.839	13.4
378.049	20.83
378.26	22.72
378.47	16.74
378.68	5.9
378.89	7.99
379.101	-4.33
379.311	-5.81
379.521	-1.37
379.732	14.26
379.942	15.93
380.152	7.06
380.362	15.17
380.572	19.75
380.783	23.54
380.993	32.86
381.203	37.37
381.413	24.48
381.623	25.8
381.833	24.14
382.043	7.43
382.253	7.25
382.463	18.66
382.674	19.98
382.884	15.01
383.094	18.34
383.304	15.92
383.514	19.9
383.724	11.9
383.934	14.92
384.144	14.01
384.353	14.66
384.563	-1.06
384.773	5.95
384.983	0.6
385.193	9.36
385.403	8.61
385.613	17.73
385.823	13.28
386.033	18.35
386.242	14.56
386.452	13.38
386.662	17.13
386.872	19.18
387.082	9.54
387.291	12.66
387.501	10.71
387.711	5.64
387.921	8.61
388.13	15.26
388.34	9.06
388.55	10.08
388.759	9.43
388.969	3.46
389.179	2.91
389.388	3.96
389.598	7.31
389.807	12.94
390.017	12.42
390.227	9.19
390.436	10.26
390.646	6.46
390.855	6.08
391.065	7.64
391.274	9.84
391.484	9.18
391.693	9.9
391.903	7.06
392.112	5.66
392.322	4.55
392.531	5.31
392.74	6.66
392.95	6.17
393.159	4.82
393.369	4.89
393.578	4.44
393.787	4.97
393.997	4.94
394.206	6.14
394.415	6.02
394.625	5.75
394.834	3.29
395.043	4.62
395.252	5.27
395.462	5.23
395.671	5.3
395.88	6.82
396.089	4.28
396.298	3.95
396.508	4.04
396.717	4.05
396.926	4.42
397.135	4.88
397.344	4.44
397.553	5.06
397.762	5.34
397.971	4.74
398.181	4.64
398.39	4.77
398.599	3.92
398.808	3.4
399.017	4.02
399.226	4.94
399.435	4.79
399.644	5.77
399.853	5.7
400.062	5.32
400.27	5.3
400.479	5.93
400.688	5.48
400.897	5.8
401.106	5.79
401.315	5.79
401.524	5.47
401.733	4.81
401.941	4.34
402.15	3.99
402.359	3.55
402.568	3.49
402.777	3.88
402.985	3.92
403.194	3.86
403.403	4.03
403.612	3.98
403.82	3.67
404.029	3.87
404.238	3.94
404.446	4
404.655	3.81
404.864	4.12
405.072	3.83
405.281	4
405.489	3.88
405.698	3.9
405.906	3.79
406.115	4.24
406.324	4.32
406.532	4.12
406.741	4.26
406.949	4.37
407.158	4.18
407.366	4.02
407.574	4.16
407.783	4.1
407.991	4.06
408.2	4.11
408.408	4.2
408.617	4.12
408.825	4.15
409.033	4.21
409.242	4.19
409.45	4.02
409.658	4.02
409.867	3.91
410.075	3.73
410.283	3.51
410.491	3.54
410.7	3.65
410.908	3.63
411.116	3.86
411.324	4.04
411.533	4.08
411.741	4.02
411.949	4.25
412.157	4.1
412.365	4.14
412.573	4.05
412.781	4.01
412.99	3.92
413.198	3.93
413.406	3.9
413.614	3.89
413.822	3.89
414.03	3.86
414.238	3.87
414.446	3.82
414.654	3.93
414.862	3.97
415.07	3.92
415.278	3.92
415.486	3.98
415.694	3.81
415.902	3.78
416.109	3.7
416.317	3.72
416.525	3.58
416.733	3.65
416.941	3.67
417.149	3.58
417.357	3.44
417.564	3.45
417.772	3.45
417.98	3.57
418.188	3.5
418.395	3.5
418.603	3.52
418.811	3.68
419.019	3.45
419.226	3.79
419.434	3.75
419.642	3.51
419.849	3.35
420.057	3.25
420.265	3.26
420.472	3.33
420.68	3.52
420.887	3.61
421.095	3.77
421.302	3.59
421.51	3.65
421.717	3.55
421.925	3.61
422.132	3.57
422.34	3.55
422.547	3.57
422.755	3.76
422.962	3.68
423.17	3.72
423.377	3.78
423.585	3.7
423.792	3.47
423.999	3.37
424.207	3.28
424.414	3.29
424.621	3.26
424.829	3.18
425.036	3.23
425.243	3.35
425.451	3.37
425.658	3.19
425.865	3.43
426.072	3.44
426.28	3.3
426.487	3.39
426.694	3.55
426.901	3.55
427.108	3.5
427.315	3.5
427.523	3.43
427.73	3.34
427.937	3.17
428.144	3.12
428.351	3.14
428.558	3.06
428.765	3.08
428.972	3.26
429.179	3.2
429.386	3.23
429.593	3.18
429.8	3.29
430.007	3.25
430.214	3.43
430.421	3.41
430.628	3.4
430.835	3.19
431.042	3.14
431.249	3.14
431.456	3.22
431.662	3.35
431.869	3.5
432.076	3.53
432.283	3.41
432.49	3.25
432.697	3.17
432.903	3.16
433.11	3.05
433.317	3.23
433.524	3.31
433.73	3.23
433.937	3.34
434.144	3.34
434.35	3.28
434.557	3.23
434.764	3.18
434.97	3.01
435.177	3.03
435.384	2.91
435.59	2.99
435.797	3.14
436.003	3.3
436.21	3.41
436.416	3.34
436.623	3.25
436.829	3.21
437.036	3.19
437.242	3.11
437.449	3.32
437.655	3.38
437.862	3.39
438.068	3.36
438.275	3.27
438.481	3.26
438.687	3.13
438.894	3.17
439.1	2.99
439.307	3.2
439.513	3.13
439.719	3.27
439.926	3.28
440.132	3.43
440.338	3.35
440.544	3.31
440.751	3.24
440.957	3.14
441.163	3.08
441.369	3.18
441.575	3.23
441.782	3.29
441.988	3.35
442.194	3.4
442.4	3.27
442.606	3.38
442.812	3.39
443.018	3.36
443.224	3.31
443.431	3.37
443.637	3.24
443.843	3.15
444.049	3.23
444.255	3.27
444.461	3.23
444.667	3.26
444.873	3.14
445.079	3.12
445.284	3.04
445.49	3.04
445.696	3.03
445.902	3.2
446.108	3.19
446.314	3.19
446.52	3.22
446.726	3.17
446.931	3.22
447.137	3.18
447.343	3.32
447.549	3.3
447.755	3.27
447.96	3.2
448.166	3.17
448.372	3.14
448.578	3.17
448.783	3.2
448.989	3.24
449.195	3.25
449.4	3.25
449.606	3.23
449.812	3.25
450.017	3.21
450.223	3.26
450.428	3.26
450.634	3.26
450.84	3.28
451.045	3.38
451.251	3.42
451.456	3.3
451.662	3.33
451.867	3.44
452.073	3.33
452.278	3.21
452.483	3.26
452.689	3.22
452.894	3.24
453.1	3.28
453.305	3.36
453.51	3.45
453.716	3.46
453.921	3.39
454.127	3.43
454.332	3.42
454.537	3.37
454.742	3.39
454.948	3.37
455.153	3.42
455.358	3.44
455.563	3.43
455.769	3.35
455.974	3.35
456.179	3.27
456.384	3.27
456.589	3.22
456.795	3.3
457	3.25
457.205	3.32
457.41	3.24
457.615	3.21
457.82	3.26
458.025	3.28
458.23	3.19
458.435	3.13
458.64	3.24
458.845	3.19
459.05	3.07
459.255	3.09
459.46	3.34
459.665	3.38
459.87	3.4
460.075	3.44
460.28	3.49
460.485	3.36
460.69	3.34
460.895	3.34
461.099	3.32
461.304	3.23
461.509	3.27
461.714	3.23
461.919	3.32
462.123	3.37
462.328	3.38
462.533	3.39
462.738	3.42
462.942	3.36
463.147	3.4
463.352	3.53
463.556	3.45
463.761	3.43
463.966	3.31
464.17	3.32
464.375	3.27
464.58	3.31
464.784	3.33
464.989	3.43
465.193	3.45
465.398	3.47
465.602	3.48
465.807	3.45
466.011	3.43
466.216	3.39
466.42	3.33
466.625	3.44
466.829	3.44
467.034	3.48
467.238	3.62
467.443	3.69
467.647	3.56
467.851	3.56
468.056	3.57
468.26	3.48
468.464	3.42
468.669	3.45
468.873	3.48
469.077	3.41
469.282	3.43
