Data from Ofra_PS_Phys_4HS23_Reflection_2.txt Node
Date: Tue Jul 20 20:40:20 EDT 2021
User: USUARIO
Spectrometer: FLMT01687
Trigger mode: 0
Integration Time (sec): 1.042999E0
Scans to average: 2
Electric dark correction enabled: true
Nonlinearity correction enabled: false
Boxcar width: 2
XAxis mode: Wavelengths
Number of Pixels in Spectrum: 3648
>>>>>Begin Spectral Data<<<<<
179.494	145.07
179.716	57.33
179.937	64.09
180.158	18.02
180.38	26.28
180.601	36.74
180.823	39.35
181.044	54.22
181.265	-165.17
181.486	20
181.708	106.99
181.929	92.45
182.15	175.25
182.372	32.34
182.593	43.98
182.814	-25.16
183.035	0.64
183.257	-11.19
183.478	-264.88
183.699	-181.52
183.92	-42.51
184.141	-76.95
184.363	-61.31
184.584	16.46
184.805	2.29
185.026	50.19
185.247	13.16
185.468	31.01
185.689	53.62
185.91	55.56
186.132	29.91
186.353	61.26
186.574	80.76
186.795	47.54
187.016	79.45
187.237	59.93
187.458	59.46
187.679	49.59
187.9	55.63
188.121	37.36
188.342	46.65
188.563	42.02
188.784	43.03
189.005	41.63
189.226	47.1
189.447	41.42
189.667	45.61
189.888	50.17
190.109	68.32
190.33	94.96
190.551	130.11
190.772	160.19
190.993	116.48
191.214	73.53
191.434	84.86
191.655	88.68
191.876	71.27
192.097	72.23
192.318	93.25
192.538	81.45
192.759	56.99
192.98	53.62
193.201	45
193.421	37.75
193.642	36.13
193.863	51.06
194.083	65.45
194.304	51.72
194.525	35.88
194.745	41.34
194.966	27.91
195.187	23.72
195.407	16.03
195.628	54.08
195.848	18.8
196.069	46.25
196.29	50.14
196.51	72.19
196.731	64.89
196.951	71.09
197.172	80.8
197.392	69.8
197.613	62.91
197.833	79.01
198.054	100.7
198.274	99.57
198.495	107.82
198.715	120.86
198.936	78.98
199.156	56.25
199.377	63.71
199.597	71.48
199.817	69.64
200.038	78.42
200.258	77.46
200.479	59.3
200.699	57.07
200.919	58.9
201.14	69.44
201.36	82.88
201.58	185.23
201.801	82.01
202.021	29.96
202.241	17.9
202.461	34.19
202.682	26.25
202.902	53.22
203.122	128.02
203.342	125.15
203.563	105.53
203.783	118.84
204.003	98.22
204.223	51.15
204.443	45.67
204.663	41.97
204.884	26.76
205.104	22.66
205.324	32.16
205.544	37.74
205.764	46.67
205.984	44.54
206.204	65.37
206.424	53.42
206.644	43.59
206.864	41.63
207.084	64.84
207.304	62.43
207.525	67.6
207.745	79.58
207.964	69.32
208.184	40.91
208.404	52.8
208.624	77.1
208.844	68.54
209.064	82.42
209.284	104.76
209.504	62.97
209.724	62.56
209.944	78.47
210.164	63.79
210.384	56.29
210.604	69.6
210.823	49.92
211.043	46.39
211.263	47.39
211.483	57.89
211.703	43.37
211.922	47.83
212.142	85.19
212.362	93.82
212.582	58.01
212.801	69.25
213.021	59.73
213.241	19.41
213.461	7.07
213.68	-13.6
213.9	-6.96
214.12	-19.67
214.339	-19.59
214.559	7.43
214.779	7.85
214.998	23.56
215.218	36.65
215.438	30.01
215.657	46.46
215.877	60.05
216.096	56.7
216.316	58.22
216.535	80.86
216.755	49.91
216.974	54.09
217.194	52
217.413	49.39
217.633	38.9
217.852	57.24
218.072	57.04
218.291	47.54
218.511	52.02
218.73	64.04
218.95	55.22
219.169	49.63
219.389	68.05
219.608	70.44
219.827	59.04
220.047	53.47
220.266	47.96
220.485	59.98
220.705	48.16
220.924	34.54
221.143	39.93
221.363	36.87
221.582	-9.35
221.801	-18.12
222.021	7.51
222.24	10.53
222.459	5.78
222.678	35.54
222.897	33.14
223.117	30.75
223.336	36.38
223.555	79.84
223.774	63.77
223.993	78.97
224.213	68.92
224.432	59.81
224.651	54.11
224.87	52.45
225.089	44.59
225.308	39.7
225.527	59.36
225.746	60.33
225.965	67.96
226.184	62.88
226.404	76.33
226.623	84.12
226.842	57.05
227.061	59.92
227.28	50.47
227.499	50.9
227.718	41.47
227.936	49.73
228.155	63.17
228.374	60.35
228.593	59.62
228.812	60.45
229.031	64.07
229.25	42.45
229.469	40.97
229.688	32.54
229.907	29.05
230.125	43.56
230.344	70.46
230.563	59.08
230.782	72.97
231.001	87.19
231.22	55.58
231.438	27.6
231.657	25.49
231.876	13.47
232.095	-6.43
232.313	19.54
232.532	37.73
232.751	36.48
232.969	32.55
233.188	49.59
233.407	59.09
233.625	43.37
233.844	55.86
234.063	57.57
234.281	55.65
234.5	55.34
234.719	72.13
234.937	69.74
235.156	64.2
235.374	53.81
235.593	37.89
235.811	30.95
236.03	26.79
236.249	33.84
236.467	35.96
236.686	45.84
236.904	52.68
237.123	57.51
237.341	60.61
237.559	65.2
237.778	62.09
237.996	44.82
238.215	23.18
238.433	29.6
238.652	39.75
238.87	40.98
239.088	59.9
239.307	58.5
239.525	39.25
239.743	29.56
239.962	40.29
240.18	18.35
240.398	29.71
240.617	47.79
240.835	32.92
241.053	30.49
241.271	42.54
241.49	34.1
241.708	50.85
241.926	51.65
242.144	43.73
242.363	31.96
242.581	41.77
242.799	21.29
243.017	35.96
243.235	31.7
243.453	24.99
243.672	24.61
243.89	23.99
244.108	21.4
244.326	34.77
244.544	48.59
244.762	51.9
244.98	53.34
245.198	50.89
245.416	36.68
245.634	37.26
245.852	33.86
246.07	22.66
246.288	3.63
246.506	17.46
246.724	14.75
246.942	23.12
247.16	21.35
247.378	57.5
247.596	55.98
247.814	49.36
248.032	38.13
248.25	56.05
248.468	50.57
248.685	55.76
248.903	62.55
249.121	63.25
249.339	61.56
249.557	55.09
249.775	51.65
249.992	44.69
250.21	51.54
250.428	41.24
250.646	49.52
250.863	44.15
251.081	15.22
251.299	36.5
251.517	36.6
251.734	27.13
251.952	29.66
252.17	54.8
252.387	47.06
252.605	43.32
252.823	57.11
253.04	56.88
253.258	61.21
253.475	65.03
253.693	80.19
253.911	77.61
254.128	95.76
254.346	92.51
254.563	68.33
254.781	43.26
254.998	47.94
255.216	51.14
255.433	21.29
255.651	24.54
255.868	87.67
256.086	81.62
256.303	46.31
256.521	54.53
256.738	40.3
256.956	11.61
257.173	16.1
257.39	36.04
257.608	29.29
257.825	38.57
258.043	52.31
258.26	56.43
258.477	50.41
258.695	63.12
258.912	68.07
259.129	77.19
259.346	59.85
259.564	66.34
259.781	71.15
259.998	76.21
260.216	55.24
260.433	61.98
260.65	64.72
260.867	79.15
261.084	77.95
261.302	89.58
261.519	94.03
261.736	84.17
261.953	61.09
262.17	43.64
262.387	45.18
262.604	40.88
262.822	41.08
263.039	53.44
263.256	62.38
263.473	57.01
263.69	59.64
263.907	79.63
264.124	45
264.341	56.18
264.558	58.54
264.775	73.66
264.992	44.79
265.209	74.48
265.426	61.02
265.643	69.65
265.86	61.51
266.077	39.19
266.294	41.33
266.51	37.13
266.727	30.66
266.944	29.66
267.161	39.78
267.378	43.79
267.595	51.95
267.812	41.08
268.028	46.7
268.245	42.14
268.462	28.91
268.679	27.88
268.896	44.02
269.112	39.84
269.329	45.35
269.546	58.6
269.763	54.45
269.979	53.04
270.196	52.27
270.413	44.35
270.629	31.77
270.846	34.07
271.063	31.89
271.279	33.56
271.496	43.93
271.712	48.76
271.929	59.84
272.146	64.81
272.362	53.52
272.579	47.75
272.795	52.83
273.012	48.34
273.228	32.87
273.445	38.12
273.661	42.79
273.878	50.03
274.094	59.82
274.311	75.13
274.527	72.08
274.744	70.98
274.96	53.58
275.177	42.22
275.393	26.71
275.609	1.57
275.826	-5.33
276.042	4.47
276.259	-1.88
276.475	30.92
276.691	29.44
276.908	21.77
277.124	16.02
277.34	27.61
277.557	19.61
277.773	32.18
277.989	37.28
278.205	51.83
278.422	45.39
278.638	56.11
278.854	63.83
279.07	58.16
279.286	60.93
279.503	64.66
279.719	44.03
279.935	49.87
280.151	50.99
280.367	45.49
280.583	46.08
280.799	54.2
281.016	34.1
281.232	35.48
281.448	50.22
281.664	57.78
281.88	51.38
282.096	65.31
282.312	67.81
282.528	65.94
282.744	58.39
282.96	63.62
283.176	30.94
283.392	23.62
283.608	-8.14
283.824	4.58
284.04	-8.65
284.256	15.47
284.471	20.67
284.687	45.8
284.903	33.47
285.119	41.08
285.335	46.54
285.551	49.54
285.767	20.61
285.982	21.62
286.198	27.91
286.414	34.67
286.63	29.51
286.846	34.78
287.061	41.64
287.277	26.65
287.493	5.99
287.709	-2.54
287.924	4.53
288.14	-0.62
288.356	5.62
288.571	6.01
288.787	22.81
289.003	17.33
289.218	24.22
289.434	34.67
289.65	35.52
289.865	26.47
290.081	52.83
290.296	61.47
290.512	61.26
290.727	80.13
290.943	66.36
291.159	55.76
291.374	54.86
291.59	37.25
291.805	21.1
292.021	41.37
292.236	46.44
292.451	49.36
292.667	68.51
292.882	58.29
293.098	49.17
293.313	48.71
293.529	55.07
293.744	45.31
293.959	59.12
294.175	69.93
294.39	72.59
294.605	49
294.821	66.12
295.036	56.31
295.251	52.6
295.467	48.02
295.682	39.67
295.897	17.47
296.112	25.82
296.328	24.92
296.543	20.63
296.758	30.9
296.973	39.43
297.188	33.57
297.404	33.36
297.619	42.3
297.834	36.74
298.049	32.97
298.264	17.34
298.479	22.77
298.694	29.49
298.909	40.63
299.125	52.77
299.34	64.67
299.555	54.15
299.77	52.05
299.985	47.2
300.2	41.4
300.415	45.57
300.63	47.17
300.845	25.09
301.06	46.25
301.275	47.67
301.49	42.01
301.704	36.91
301.919	55.89
302.134	37.77
302.349	32.85
302.564	40.06
302.779	27.32
302.994	22.07
303.209	23.54
303.423	41.74
303.638	45.36
303.853	46.46
304.068	52.71
304.283	59.56
304.497	46.89
304.712	41.97
304.927	61.01
305.142	57.8
305.356	56.25
305.571	57.75
305.786	52.83
306	52.97
306.215	47.07
306.43	39.56
306.644	39.49
306.859	54.37
307.074	53.97
307.288	54.92
307.503	42.13
307.717	25.3
307.932	15.03
308.147	11.36
308.361	3.82
308.576	5.58
308.79	20.76
309.005	13.24
309.219	7.02
309.434	6
309.648	14.97
309.863	-3.46
310.077	12.89
310.292	21.66
310.506	48.53
310.72	33.19
310.935	49.79
311.149	44.53
311.364	31.14
311.578	28.88
311.792	37.62
312.007	30.81
312.221	47.75
312.435	38.59
312.649	29.59
312.864	50.13
313.078	47.45
313.292	43.03
313.507	50.95
313.721	47.84
313.935	32.97
314.149	44.9
314.363	41.24
314.578	30.43
314.792	39.02
315.006	38.84
315.22	13.51
315.434	3.4
315.648	26.39
315.862	25.71
316.077	35.33
316.291	44.45
316.505	44.57
316.719	48.26
316.933	39.03
317.147	23.18
317.361	29.56
317.575	39.63
317.789	9.57
318.003	3.91
318.217	23.6
318.431	26.7
318.645	17.4
318.859	27.45
319.073	42.48
319.287	34.34
319.5	32.71
319.714	39.89
319.928	40.08
320.142	27.68
320.356	34.63
320.57	36.15
320.784	29.68
320.997	36.04
321.211	42.38
321.425	41.36
321.639	45.62
321.853	51.99
322.066	56.5
322.28	54.35
322.494	47.82
322.707	36.91
322.921	40.23
323.135	29.4
323.349	25.85
323.562	27.47
323.776	33.99
323.989	37.57
324.203	27.38
324.417	39.62
324.63	44.78
324.844	49.05
325.057	54.98
325.271	70.61
325.485	57.05
325.698	63.01
325.912	53.55
326.125	44
326.339	39.39
326.552	52.24
326.766	48.9
326.979	55.86
327.193	63.68
327.406	57.59
327.619	47.57
327.833	37.42
328.046	35.46
328.26	28.62
328.473	33.09
328.686	25.14
328.9	36.45
329.113	28.38
329.326	38.33
329.54	18.87
329.753	27.12
329.966	29.27
330.179	38.34
330.393	24.16
330.606	41.94
330.819	39.43
331.032	39.33
331.246	49.8
331.459	55.69
331.672	58.28
331.885	63.99
332.098	61.13
332.311	54.74
332.525	54.6
332.738	46.61
332.951	38.8
333.164	31.7
333.377	33.9
333.59	24.67
333.803	29.43
334.016	31.21
334.229	24.17
334.442	18.45
334.655	24.61
334.868	30.18
335.081	32.06
335.294	26.42
335.507	31.04
335.72	43.61
335.933	45.06
336.146	45.34
336.359	47.24
336.572	45.5
336.785	43.05
336.997	37.44
337.21	41.93
337.423	64.61
337.636	75.34
337.849	62.25
338.062	74.69
338.274	76.18
338.487	70.14
338.7	60.01
338.913	53.69
339.125	45.21
339.338	24.11
339.551	25.68
339.763	32.97
339.976	36.06
340.189	32.73
340.402	50.71
340.614	32.69
340.827	46.04
341.039	66.47
341.252	54.62
341.465	53.43
341.677	58.4
341.89	25.7
342.102	15.98
342.315	39.95
342.527	53.65
342.74	48.85
342.952	57.52
343.165	48.18
343.377	46.32
343.59	36.78
343.802	38.45
344.015	34.57
344.227	44.8
344.44	35.79
344.652	29.73
344.864	26.52
345.077	21
345.289	22.75
345.502	13.97
345.714	10.19
345.926	23.26
346.139	29.22
346.351	21.9
346.563	48.37
346.775	48.14
346.988	37.7
347.2	43.05
347.412	51.19
347.624	38.83
347.837	49.07
348.049	59.09
348.261	54.49
348.473	22.97
348.685	28.58
348.897	19.52
349.11	33.99
349.322	28.71
349.534	32.55
349.746	26.5
349.958	21.48
350.17	19.76
350.382	20.27
350.594	37.82
350.806	45.51
351.018	52.93
351.23	47.41
351.442	61.06
351.654	51.37
351.866	50.68
352.078	53.08
352.29	53.71
352.502	42.78
352.714	40.69
352.926	46.05
353.138	38.36
353.35	26.45
353.561	42.08
353.773	34.31
353.985	15.53
354.197	20.76
354.409	29.63
354.621	19.4
354.832	23.95
355.044	45.03
355.256	41.58
355.468	28.69
355.679	43.42
355.891	45.29
356.103	23.07
356.314	17.54
356.526	43.71
356.738	24.68
356.949	22.25
357.161	45.6
357.373	52.34
357.584	50.09
357.796	55.12
358.008	58.11
358.219	49.9
358.431	38.89
358.642	30.22
358.854	25.45
359.065	18.94
359.277	9.73
359.488	33.66
359.7	20.03
359.911	30.88
360.123	14.1
360.334	11.8
360.546	20.31
360.757	40.12
360.969	30.09
361.18	46.88
361.391	49.51
361.603	31.51
361.814	22.29
362.025	31.44
362.237	17.67
362.448	10.68
362.659	14.87
362.871	30.44
363.082	23.15
363.293	38.39
363.504	33.36
363.716	39.85
363.927	26.05
364.138	25.41
364.349	19.92
364.56	22.52
364.772	33.25
364.983	41.55
365.194	46.74
365.405	52.38
365.616	57.03
365.827	46.03
366.038	37.67
366.25	24.7
366.461	30.57
366.672	26.58
366.883	19.87
367.094	35.19
367.305	43.51
367.516	44.93
367.727	54.45
367.938	52.15
368.149	34.38
368.36	41.12
368.571	33.6
368.781	35.92
368.992	38.72
369.203	50.51
369.414	34.43
369.625	32.52
369.836	30.93
370.047	33.55
370.258	34.29
370.468	52.58
370.679	55.4
370.89	44.58
371.101	42.3
371.312	46.59
371.522	32.82
371.733	34.46
371.944	37.71
372.155	37.19
372.365	25.75
372.576	30.69
372.787	30.4
372.997	31
373.208	36.88
373.419	29.71
373.629	14.83
373.84	1.98
374.05	4.71
374.261	2.9
374.472	18.44
374.682	33.6
374.893	43.79
375.103	47.05
375.314	46
375.524	48.64
375.735	45.06
375.945	39.79
376.156	35.66
376.366	36.37
376.577	21.17
376.787	25.81
376.997	21.26
377.208	25.57
377.418	28.86
377.629	44.3
377.839	39.93
378.049	55.3
378.26	49.71
378.47	33.31
378.68	23.52
378.89	29.29
379.101	27.68
379.311	48.52
379.521	71.64
379.732	66.44
379.942	56.4
380.152	43.73
380.362	31.11
380.572	24.68
380.783	34.03
380.993	39.43
381.203	39
381.413	29.6
381.623	30.93
381.833	29.77
382.043	22.24
382.253	28
382.463	36.38
382.674	36.86
382.884	32.18
383.094	28.91
383.304	30.21
383.514	35.59
383.724	24.31
383.934	20.98
384.144	26.83
384.353	27.57
384.563	18.77
384.773	37.42
384.983	40.15
385.193	37.31
385.403	28.22
385.613	35.12
385.823	17.9
386.033	14.55
386.242	5.21
386.452	4.96
386.662	2.4
386.872	16.49
387.082	15.46
387.291	24.96
387.501	32.69
387.711	32.5
387.921	26.14
388.13	28.74
388.34	22.09
388.55	16.64
388.759	9.05
388.969	2.86
389.179	8.6
389.388	9.3
389.598	10.55
389.807	18.64
390.017	20.94
390.227	12.59
390.436	17.83
390.646	14.44
390.855	13.23
391.065	13.87
391.274	16.06
391.484	13.47
391.693	16.53
391.903	15.67
392.112	12.04
392.322	10.05
392.531	10.07
392.74	7.18
392.95	3.99
393.159	5.66
393.369	7.2
393.578	7
393.787	8.64
393.997	11.51
394.206	11.61
394.415	11.8
394.625	12.87
394.834	11.65
395.043	10.26
395.252	9.81
395.462	7.63
395.671	5.7
395.88	6.5
396.089	5.06
396.298	4.5
396.508	5.61
396.717	5.64
396.926	4.83
397.135	5.62
397.344	5.63
397.553	5.93
397.762	6.23
397.971	5.6
398.181	5.77
398.39	5.99
398.599	5.37
398.808	4.78
399.017	5.65
399.226	6.14
399.435	5.8
399.644	6.24
399.853	6.61
400.062	6.6
400.27	6.24
400.479	6.39
400.688	6.41
400.897	6.32
401.106	5.8
401.315	5.72
401.524	5.58
401.733	5.25
401.941	4.83
402.15	4.37
402.359	4.1
402.568	4.24
402.777	4.16
402.985	4.22
403.194	4.81
403.403	4.91
403.612	4.81
403.82	4.7
404.029	4.79
404.238	4.69
404.446	4.75
404.655	4.43
404.864	4.72
405.072	4.77
405.281	4.85
405.489	4.74
405.698	4.89
405.906	4.62
406.115	4.55
406.324	4.37
406.532	4.29
406.741	4.41
406.949	4.52
407.158	4.58
407.366	4.66
407.574	4.66
407.783	4.57
407.991	4.33
408.2	4.4
408.408	4.36
408.617	4.3
408.825	4.37
409.033	4.6
409.242	4.38
409.45	4.42
409.658	4.38
409.867	4.14
410.075	4.06
410.283	4.05
410.491	3.98
410.7	4.21
410.908	4.27
411.116	4.39
411.324	4.62
411.533	4.67
411.741	4.57
411.949	4.73
412.157	4.58
412.365	4.52
412.573	4.39
412.781	4.25
412.99	4.24
413.198	4.21
413.406	4.12
413.614	4.24
413.822	4.36
414.03	4.31
414.238	4.25
414.446	4.13
414.654	4.12
414.862	3.93
415.07	3.95
415.278	4.04
415.486	4.03
415.694	3.9
415.902	3.98
416.109	3.88
416.317	3.85
416.525	3.95
416.733	3.99
416.941	4.05
417.149	4.01
417.357	4.1
417.564	4.16
417.772	4.08
417.98	4.17
418.188	4.17
418.395	4.05
418.603	3.93
418.811	4.07
419.019	3.99
419.226	4.12
419.434	4.26
419.642	4.2
419.849	4.12
420.057	4.04
420.265	4.05
420.472	3.83
420.68	3.84
420.887	3.94
421.095	3.95
421.302	3.8
421.51	3.79
421.717	3.86
421.925	3.86
422.132	3.81
422.34	3.73
422.547	3.67
422.755	3.63
422.962	3.37
423.17	3.25
423.377	3.47
423.585	3.55
423.792	3.37
423.999	3.48
424.207	3.42
424.414	3.36
424.621	3.29
424.829	3.36
425.036	3.28
425.243	3.47
425.451	3.47
425.658	3.46
425.865	3.59
426.072	3.71
426.28	3.83
426.487	3.86
426.694	3.89
426.901	3.82
427.108	3.74
427.315	3.59
427.523	3.61
427.73	3.6
427.937	3.42
428.144	3.34
428.351	3.27
428.558	3.19
428.765	3.14
428.972	3.32
429.179	3.42
429.386	3.48
429.593	3.42
429.8	3.43
430.007	3.43
430.214	3.44
430.421	3.33
430.628	3.3
430.835	3.23
431.042	3.08
431.249	3.05
431.456	3.22
431.662	3.33
431.869	3.4
432.076	3.5
432.283	3.39
432.49	3.24
432.697	3.17
432.903	3.11
433.11	2.96
433.317	3.05
433.524	3.08
433.73	2.94
433.937	3.03
434.144	3.14
434.35	3.22
434.557	3.23
434.764	3.26
434.97	3.16
435.177	3.11
435.384	3.01
435.59	3.03
435.797	3.15
436.003	3.21
436.21	3.27
436.416	3.1
436.623	2.95
436.829	2.89
437.036	2.96
437.242	2.94
437.449	3.05
437.655	3.17
437.862	3.19
438.068	3.21
438.275	3.21
438.481	3.34
438.687	3.3
438.894	3.23
439.1	3.13
439.307	3.13
439.513	3.08
439.719	3.15
439.926	3.22
440.132	3.25
440.338	3.23
440.544	3.08
440.751	3.05
440.957	3
441.163	2.92
441.369	2.98
441.575	3.09
441.782	3.09
441.988	3.07
442.194	3.15
442.4	3.05
442.606	3.06
442.812	3.06
443.018	3
443.224	2.86
443.431	2.87
443.637	2.79
443.843	2.74
444.049	2.84
444.255	2.98
444.461	3.04
444.667	3.16
444.873	3.1
445.079	3.1
445.284	3.03
445.49	2.98
445.696	2.99
445.902	3.05
446.108	3.09
446.314	3.14
446.52	3.18
446.726	3.13
446.931	3.28
447.137	3.3
447.343	3.27
447.549	3.27
447.755	3.25
447.96	3.14
448.166	3.07
448.372	3.1
448.578	3.09
448.783	3.07
448.989	3.05
449.195	3.04
449.4	3
449.606	2.92
449.812	2.95
450.017	2.86
450.223	2.88
450.428	2.93
450.634	2.93
450.84	2.93
451.045	3.05
451.251	3.03
451.456	2.97
451.662	3.06
451.867	3.12
452.073	3.15
452.278	3.13
452.483	3.2
452.689	3.2
452.894	3.14
453.1	3.05
453.305	3.11
453.51	3.1
453.716	3.03
453.921	3.01
454.127	3.07
454.332	2.99
454.537	2.93
454.742	2.96
454.948	2.9
455.153	2.88
455.358	2.92
455.563	2.96
455.769	2.95
455.974	2.97
456.179	2.97
456.384	2.87
456.589	2.87
456.795	2.9
457	2.9
457.205	2.99
457.41	3.08
457.615	3.03
457.82	3.04
458.025	3
458.23	2.86
458.435	2.82
458.64	2.87
458.845	2.82
459.05	2.78
459.255	2.83
459.46	2.89
459.665	2.86
459.87	2.86
460.075	2.95
460.28	2.98
460.485	2.96
460.69	3.06
460.895	2.99
461.099	2.98
461.304	2.93
461.509	2.86
461.714	2.8
461.919	2.9
462.123	2.93
462.328	2.94
462.533	3.05
462.738	3.1
462.942	3.05
463.147	3.05
463.352	3.14
463.556	3.03
463.761	2.96
463.966	3
464.17	2.95
464.375	2.86
464.58	2.96
464.784	2.96
464.989	2.88
465.193	2.97
465.398	2.92
465.602	2.94
465.807	2.9
466.011	2.96
466.216	2.93
466.42	2.96
466.625	2.96
466.829	3.01
467.034	2.98
467.238	2.97
467.443	3.04
467.647	3.04
467.851	2.94
468.056	2.93
468.26	2.96
