Data from Ofra_PS_Phys_0CX5_Reflection_1.txt Node
Date: Tue Jul 20 14:43:22 EDT 2021
User: USUARIO
Spectrometer: FLMT01687
Trigger mode: 0
Integration Time (sec): 1.200000E0
Scans to average: 2
Electric dark correction enabled: true
Nonlinearity correction enabled: false
Boxcar width: 2
XAxis mode: Wavelengths
Number of Pixels in Spectrum: 3648
>>>>>Begin Spectral Data<<<<<
179.494	66.07
179.716	519.7
179.937	-250.26
180.158	-16.79
180.38	29.08
180.601	29.57
180.823	376.95
181.044	250.59
181.265	-22.82
181.486	30.65
181.708	-83.9
181.929	-40.85
182.15	170.91
182.372	-279.67
182.593	87.82
182.814	-4453.33
183.035	-218
183.257	-29.99
183.478	-34.36
183.699	21.92
183.92	11.85
184.141	54.55
184.363	49.42
184.584	45.77
184.805	14.4
185.026	35.68
185.247	26.87
185.468	30.27
185.689	35.47
185.91	46
186.132	49.58
186.353	43.57
186.574	34.07
186.795	39.76
187.016	47.45
187.237	39.12
187.458	33.49
187.679	45.1
187.9	42.04
188.121	25.91
188.342	43.06
188.563	65.04
188.784	57.99
189.005	56.16
189.226	38.64
189.447	23.41
189.667	22.18
189.888	26.24
190.109	28.34
190.33	38.23
190.551	43.31
190.772	27.9
190.993	26.13
191.214	13.52
191.434	15.04
191.655	7.68
191.876	13.56
192.097	-5.57
192.318	15.02
192.538	27.06
192.759	28.4
192.98	34.52
193.201	39.97
193.421	36.65
193.642	41.52
193.863	40.91
194.083	49.49
194.304	52.77
194.525	54.66
194.745	50.57
194.966	50.13
195.187	41.34
195.407	38.39
195.628	16.98
195.848	6.39
196.069	16.29
196.29	14
196.51	36.16
196.731	35.02
196.951	34.09
197.172	24.79
197.392	20.17
197.613	-5.76
197.833	0.5
198.054	11.48
198.274	0.55
198.495	-1.49
198.715	-2.41
198.936	2.36
199.156	-25.37
199.377	-59.96
199.597	-37.89
199.817	-10.49
200.038	-15.36
200.258	2.3
200.479	25.2
200.699	27.23
200.919	39.37
201.14	56.82
201.36	50.47
201.58	56.04
201.801	39.43
202.021	42.63
202.241	32.27
202.461	35.92
202.682	28.9
202.902	48.98
203.122	34.63
203.342	35.48
203.563	21.65
203.783	21.49
204.003	0.37
204.223	5.79
204.443	-0.31
204.663	12.76
204.884	6.86
205.104	27.89
205.324	34.39
205.544	31.21
205.764	30.17
205.984	30.03
206.204	6.86
206.424	6.96
206.644	-12.93
206.864	-12.83
207.084	-8.68
207.304	8.02
207.525	0.07
207.745	5.58
207.964	-3.23
208.184	3.01
208.404	-8.37
208.624	7.28
208.844	25.37
209.064	50.81
209.284	39.14
209.504	32.48
209.724	24.46
209.944	29.95
210.164	35.93
210.384	49.29
210.604	45.6
210.823	47.03
211.043	46.17
211.263	18.96
211.483	10.15
211.703	18.84
211.922	18.5
212.142	22.03
212.362	19.23
212.582	11.84
212.801	35.85
213.021	38.9
213.241	28.34
213.461	25.91
213.68	28.89
213.9	26.07
214.12	15.82
214.339	24.35
214.559	36.37
214.779	48.44
214.998	42.75
215.218	32.71
215.438	31.45
215.657	32.92
215.877	27.46
216.096	12.49
216.316	25.05
216.535	15.96
216.755	28.69
216.974	26.56
217.194	41.31
217.413	44.37
217.633	50.86
217.852	52.9
218.072	45.48
218.291	48.94
218.511	45.74
218.73	31.59
218.95	37.45
219.169	33.43
219.389	24.37
219.608	26.75
219.827	60.11
220.047	57.03
220.266	76.76
220.485	90.74
220.705	92.62
220.924	56.71
221.143	53.15
221.363	45.15
221.582	39.04
221.801	12.18
222.021	13.54
222.24	3.71
222.459	3.12
222.678	2.44
222.897	19.91
223.117	20.11
223.336	19.42
223.555	17.66
223.774	29.13
223.993	22.41
224.213	20.11
224.432	29.09
224.651	39.79
224.87	21.94
225.089	30.53
225.308	38.94
225.527	27.4
225.746	3.29
225.965	17.79
226.184	11.41
226.404	-3.95
226.623	10.62
226.842	14.98
227.061	18.81
227.28	29.39
227.499	34.34
227.718	37.87
227.936	44.5
228.155	41.77
228.374	33.8
228.593	37.26
228.812	26.62
229.031	26.51
229.25	27.3
229.469	24.42
229.688	16.62
229.907	23.82
230.125	17.25
230.344	10.92
230.563	17.18
230.782	18.45
231.001	5.02
231.22	12.53
231.438	1
231.657	2.99
231.876	18.25
232.095	33.32
232.313	41.16
232.532	53.14
232.751	52.48
232.969	37.86
233.188	31.18
233.407	20.64
233.625	0.77
233.844	9.95
234.063	21.88
234.281	27.21
234.5	41.55
234.719	41.57
234.937	38.72
235.156	41.81
235.374	41.84
235.593	32.52
235.811	44.62
236.03	46.46
236.249	42.68
236.467	38.97
236.686	30.68
236.904	22.63
237.123	16.2
237.341	9.36
237.559	25.87
237.778	41.45
237.996	45.68
238.215	51.98
238.433	50.31
238.652	27.84
238.87	11.09
239.088	-5.35
239.307	-2.62
239.525	-26.33
239.743	7.83
239.962	3.44
240.18	19.16
240.398	5.73
240.617	21.18
240.835	20.9
241.053	24.69
241.271	26.15
241.49	34.66
241.708	39.04
241.926	48.31
242.144	60.5
242.363	74.07
242.581	81.33
242.799	70.03
243.017	51.84
243.235	42.26
243.453	33.18
243.672	37.6
243.89	44.43
244.108	55.24
244.326	50.97
244.544	40.79
244.762	25.77
244.98	3.85
245.198	9.96
245.416	25.83
245.634	40.93
245.852	56.75
246.07	77.91
246.288	75.02
246.506	65.66
246.724	66.1
246.942	39.27
247.16	32.23
247.378	24.94
247.596	23.16
247.814	18.74
248.032	20.21
248.25	25.62
248.468	35.84
248.685	31.28
248.903	41.52
249.121	61.89
249.339	56.95
249.557	41.48
249.775	55.01
249.992	26.99
250.21	13.47
250.428	14.2
250.646	7.49
250.863	8.89
251.081	22.23
251.299	20.85
251.517	26.71
251.734	34.72
251.952	23.87
252.17	12.44
252.387	17.17
252.605	23.19
252.823	26.01
253.04	39.64
253.258	53.98
253.475	55.95
253.693	57.24
253.911	59.01
254.128	49.42
254.346	38.24
254.563	18.16
254.781	6.61
254.998	-13.26
255.216	-12.5
255.433	12.75
255.651	29.83
255.868	41.49
256.086	37.33
256.303	45.92
256.521	46.61
256.738	45.2
256.956	21.72
257.173	24.45
257.39	20.97
257.608	6.73
257.825	-4.71
258.043	20.29
258.26	31.93
258.477	19.4
258.695	14.25
258.912	26.03
259.129	25.53
259.346	12.19
259.564	6.87
259.781	-3.52
259.998	15.38
260.216	0.68
260.433	17.3
260.65	29.81
260.867	45.9
261.084	21.02
261.302	38.09
261.519	28.23
261.736	24.61
261.953	22.74
262.17	39.23
262.387	30.51
262.604	41.26
262.822	47.17
263.039	39.3
263.256	25.9
263.473	37.86
263.69	27.78
263.907	12.24
264.124	28.36
264.341	44.69
264.558	38.07
264.775	36.66
264.992	36.88
265.209	29.72
265.426	33.46
265.643	32.23
265.86	33.9
266.077	37.74
266.294	37.2
266.51	23.22
266.727	27.27
266.944	21.71
267.161	19.84
267.378	18.12
267.595	20.07
267.812	13.77
268.028	17.54
268.245	34.35
268.462	28.15
268.679	20.22
268.896	16.73
269.112	33.32
269.329	25.1
269.546	15.42
269.763	37.41
269.979	43.05
270.196	31.69
270.413	32.16
270.629	54.39
270.846	32.99
271.063	18.68
271.279	29.18
271.496	19.81
271.712	24.09
271.929	35.28
272.146	49.96
272.362	32.59
272.579	34.44
272.795	30.75
273.012	29.55
273.228	22.88
273.445	25.78
273.661	32.35
273.878	15.36
274.094	8.75
274.311	1.77
274.527	11.76
274.744	3.61
274.96	14.34
275.177	6.7
275.393	15.22
275.609	10.74
275.826	15.45
276.042	17.64
276.259	19.89
276.475	14.95
276.691	6.32
276.908	4.24
277.124	14.63
277.34	25.46
277.557	29.63
277.773	35.44
277.989	40.35
278.205	30.58
278.422	25.06
278.638	23.77
278.854	24.83
279.07	25.49
279.286	35.28
279.503	39.04
279.719	42.68
279.935	36.75
280.151	35.93
280.367	36.68
280.583	44.55
280.799	38.61
281.016	52.24
281.232	55.01
281.448	53.59
281.664	51.97
281.88	57.34
282.096	44.1
282.312	47.2
282.528	49.6
282.744	52.04
282.96	41.74
283.176	40.33
283.392	23.23
283.608	9.55
283.824	8.64
284.04	6.52
284.256	9.15
284.471	12.84
284.687	16.66
284.903	3.2
285.119	10.02
285.335	24.33
285.551	25.14
285.767	13.93
285.982	21.01
286.198	23.91
286.414	13.3
286.63	20.57
286.846	17.89
287.061	15.09
287.277	-9.49
287.493	-4.74
287.709	-8.41
287.924	7.08
288.14	2.74
288.356	13.24
288.571	14.89
288.787	3.84
289.003	7.5
289.218	15.07
289.434	22.83
289.65	24.37
289.865	25.68
290.081	25.83
290.296	14.93
290.512	-5.38
290.727	-16.69
290.943	-15.41
291.159	-15.46
291.374	-7.4
291.59	1.22
291.805	5.08
292.021	22.99
292.236	33.22
292.451	30.67
292.667	38.92
292.882	41.94
293.098	24.25
293.313	23.4
293.529	27.36
293.744	16.58
293.959	11.69
294.175	23.53
294.39	12.87
294.605	12.78
294.821	13.55
295.036	20.84
295.251	29.65
295.467	35.89
295.682	43.37
295.897	48.24
296.112	48.3
296.328	27.87
296.543	24.67
296.758	17.15
296.973	11.87
297.188	8.22
297.404	20.57
297.619	16.55
297.834	22.77
298.049	12.72
298.264	17.04
298.479	21.95
298.694	26.21
298.909	19.54
299.125	53.69
299.34	39.82
299.555	45.62
299.77	52.38
299.985	47.62
300.2	22.74
300.415	23.88
300.63	14.65
300.845	11.75
301.06	12.45
301.275	20.61
301.49	17.87
301.704	17.34
301.919	17.93
302.134	24.2
302.349	17.8
302.564	19.68
302.779	11.04
302.994	10.23
303.209	9.97
303.423	26.46
303.638	27.56
303.853	49.34
304.068	48.85
304.283	33.26
304.497	18.39
304.712	22.09
304.927	28.52
305.142	16.09
305.356	10.95
305.571	17.9
305.786	35.65
306	16.54
306.215	36.09
306.43	35.87
306.644	54.24
306.859	44.75
307.074	46.09
307.288	47.45
307.503	45.87
307.717	41.06
307.932	31.66
308.147	36.55
308.361	43.29
308.576	45.79
308.79	42.12
309.005	44.96
309.219	45.15
309.434	30.46
309.648	30.64
309.863	12.28
310.077	4.64
310.292	10.08
310.506	11.28
310.72	19.58
310.935	41.7
311.149	53.78
311.364	37.14
311.578	46.17
311.792	40.96
312.007	32.05
312.221	31.45
312.435	36
312.649	32.93
312.864	45.58
313.078	56.4
313.292	45.36
313.507	51.66
313.721	38.41
313.935	16.4
314.149	0.44
314.363	-1.34
314.578	-13.24
314.792	-15.63
315.006	-13.71
315.22	-9.81
315.434	3.58
315.648	11.7
315.862	16.84
316.077	16.58
316.291	24.8
316.505	23.29
316.719	25.54
316.933	28.02
317.147	29.77
317.361	13.64
317.575	16
317.789	22.11
318.003	12.02
318.217	14.26
318.431	18.56
318.645	13.17
318.859	2.75
319.073	19.44
319.287	9.41
319.5	11.46
319.714	16.51
319.928	29.42
320.142	27.74
320.356	27.06
320.57	36.29
320.784	43.25
320.997	45.7
321.211	45.6
321.425	50.32
321.639	35.76
321.853	39.66
322.066	14.23
322.28	-8.03
322.494	12.72
322.707	16.28
322.921	9.39
323.135	14.22
323.349	23.62
323.562	21.05
323.776	24.04
323.989	25.85
324.203	25.69
324.417	26.76
324.63	13.61
324.844	15.79
325.057	14.72
325.271	13.39
325.485	9.65
325.698	15.19
325.912	17.67
326.125	8.83
326.339	11.35
326.552	1.18
326.766	7.52
326.979	4.5
327.193	12.43
327.406	18.46
327.619	12.75
327.833	19.74
328.046	18.31
328.26	18.99
328.473	22.53
328.686	50.16
328.9	37.4
329.113	36.08
329.326	28.47
329.54	28.72
329.753	25.46
329.966	40.55
330.179	47.01
330.393	52.64
330.606	41.47
330.819	32.74
331.032	21.61
331.246	16.98
331.459	24.1
331.672	20.66
331.885	25.22
332.098	27.8
332.311	24.19
332.525	3.94
332.738	19.35
332.951	19.54
333.164	15.5
333.377	21.14
333.59	36.03
333.803	25.03
334.016	18.95
334.229	28.66
334.442	28.62
334.655	16.45
334.868	31.83
335.081	34.41
335.294	28.08
335.507	17.02
335.72	26.68
335.933	18.28
336.146	23.48
336.359	26.54
336.572	35.64
336.785	23.63
336.997	22.55
337.21	13.26
337.423	9.11
337.636	-3.81
337.849	18.92
338.062	26.48
338.274	28.71
338.487	25.22
338.7	35.13
338.913	15.4
339.125	8.45
339.338	-6.21
339.551	-0.58
339.763	-13.27
339.976	10.97
340.189	3.45
340.402	20.72
340.614	27.51
340.827	31.68
341.039	15.91
341.252	32.34
341.465	32.79
341.677	24.56
341.89	21.07
342.102	28.89
342.315	28.63
342.527	32.43
342.74	36.93
342.952	50.34
343.165	43.13
343.377	38.67
343.59	26.79
343.802	28.08
344.015	16.72
344.227	19.45
344.44	21.4
344.652	32.83
344.864	19.58
345.077	8.2
345.289	21.43
345.502	19.23
345.714	7.68
345.926	15.45
346.139	27.8
346.351	18.53
346.563	25.49
346.775	30.85
346.988	23.37
347.2	9.65
347.412	19.87
347.624	21.74
347.837	18.55
348.049	21.05
348.261	27.06
348.473	25.27
348.685	19.32
348.897	18.87
349.11	17.48
349.322	22.48
349.534	19.07
349.746	18.05
349.958	24.49
350.17	30.84
350.382	17.23
350.594	15.34
350.806	16.7
351.018	19.95
351.23	17.86
351.442	30.41
351.654	22.88
351.866	30.54
352.078	25.54
352.29	15.15
352.502	18.8
352.714	18.7
352.926	19.84
353.138	24
353.35	27.79
353.561	22.4
353.773	35.17
353.985	27.44
354.197	21.29
354.409	34.07
354.621	35.41
354.832	23.75
355.044	23.37
355.256	20.48
355.468	-5.82
355.679	-0.27
355.891	8.86
356.103	22.62
356.314	17.45
356.526	26.17
356.738	23.62
356.949	23.6
357.161	18.69
357.373	26.44
357.584	31.28
357.796	33.36
358.008	23.07
358.219	17.56
358.431	16.88
358.642	29.42
358.854	29.81
359.065	36.15
359.277	31.67
359.488	29.78
359.7	18.01
359.911	7.79
360.123	1.79
360.334	8.6
360.546	3.21
360.757	11.7
360.969	13.92
361.18	19.47
361.391	18.13
361.603	18.11
361.814	5.73
362.025	9.81
362.237	12.19
362.448	13.41
362.659	12.58
362.871	14.97
363.082	14.24
363.293	8.94
363.504	-4.2
363.716	5.62
363.927	-11.16
364.138	-8.82
364.349	-8.39
364.56	-4.8
364.772	-8.22
364.983	13.03
365.194	15.71
365.405	22
365.616	22.04
365.827	18.13
366.038	12.68
366.25	9.43
366.461	6.6
366.672	15.45
366.883	21.74
367.094	29.25
367.305	29.76
367.516	34.81
367.727	27.88
367.938	32.16
368.149	24.01
368.36	19.33
368.571	17.46
368.781	20.16
368.992	16.71
369.203	8.91
369.414	9.27
369.625	16.2
369.836	19.83
370.047	19.41
370.258	28.92
370.468	35.71
370.679	30.76
370.89	26.44
371.101	31.85
371.312	21.52
371.522	13.8
371.733	10.49
371.944	16.57
372.155	18.99
372.365	23.06
372.576	25.95
372.787	30.69
372.997	33.08
373.208	21.96
373.419	23.55
373.629	22.08
373.84	25.57
374.05	24.34
374.261	29.56
374.472	28.69
374.682	27.82
374.893	27.64
375.103	23.02
375.314	26.16
375.524	23.28
375.735	27.42
375.945	29.44
376.156	26
376.366	11.5
376.577	9.41
376.787	9.66
376.997	3.1
377.208	13.78
377.418	18.3
377.629	26.76
377.839	26.52
378.049	29.28
378.26	26.01
378.47	26.47
378.68	36.66
378.89	33.12
379.101	21.22
379.311	24.44
379.521	27.23
379.732	17.3
379.942	8.01
380.152	8.99
380.362	8.07
380.572	12.97
380.783	21.07
380.993	44.4
381.203	43.44
381.413	45.5
381.623	38.74
381.833	37.9
382.043	22.18
382.253	16.8
382.463	8.83
382.674	11.87
382.884	8.05
383.094	14.13
383.304	28.51
383.514	29.33
383.724	33.73
383.934	32.73
384.144	32.78
384.353	20.96
384.563	14.79
384.773	14.17
384.983	17.84
385.193	20.6
385.403	23.47
385.613	28.11
385.823	18.76
386.033	16.99
386.242	16.46
386.452	16.07
386.662	13.85
386.872	18.47
387.082	13.32
387.291	9.99
387.501	11.19
387.711	12.9
387.921	13.45
388.13	14.38
388.34	19.21
388.55	17.71
388.759	14.74
388.969	11.85
389.179	15.41
389.388	10.63
389.598	9.16
389.807	8.5
390.017	9.07
390.227	6.35
390.436	6.13
390.646	6.68
390.855	7.37
391.065	9.49
391.274	11.03
391.484	12.28
391.693	11.11
391.903	12.9
392.112	10.48
392.322	8.24
392.531	9.07
392.74	10.81
392.95	8.92
393.159	9.6
393.369	10.15
393.578	8.38
393.787	7.85
393.997	7.54
394.206	7.21
394.415	8.66
394.625	9.94
394.834	10.17
395.043	9.98
395.252	10.39
395.462	9.39
395.671	7.65
395.88	5.72
396.089	6.05
396.298	5.64
396.508	6.32
396.717	7.15
396.926	7.91
397.135	7.42
397.344	7.43
397.553	7.11
397.762	6.99
397.971	6.59
398.181	6.35
398.39	6.01
398.599	5.34
398.808	4.81
399.017	5.22
399.226	5.72
399.435	6.17
399.644	5.77
399.853	6.17
400.062	5.95
400.27	5.39
400.479	4.67
400.688	5.54
400.897	5.76
401.106	6.14
401.315	6.48
401.524	6.66
401.733	6.5
401.941	6.36
402.15	6.15
402.359	5.92
402.568	5.96
402.777	5.58
402.985	5.61
403.194	5.47
403.403	5.75
403.612	5.58
403.82	5.49
404.029	5.14
404.238	5.29
404.446	5.13
404.655	5.12
404.864	5.26
405.072	5.39
405.281	5.43
405.489	5.52
405.698	5.62
405.906	5.57
406.115	5.41
406.324	5.25
406.532	5.1
406.741	4.91
406.949	4.97
407.158	4.93
407.366	4.8
407.574	4.86
407.783	4.96
407.991	4.83
408.2	4.94
408.408	5.15
408.617	5.12
408.825	5.06
409.033	5.25
409.242	5.08
409.45	5.01
409.658	4.81
409.867	4.78
410.075	4.56
410.283	4.6
410.491	4.47
410.7	4.52
410.908	4.73
411.116	4.79
411.324	4.84
411.533	4.93
411.741	4.99
411.949	4.89
412.157	4.8
412.365	4.84
412.573	4.91
412.781	4.78
412.99	4.75
413.198	4.82
413.406	4.77
413.614	4.57
413.822	4.6
414.03	4.59
414.238	4.57
414.446	4.46
414.654	4.44
414.862	4.48
415.07	4.36
415.278	4.37
415.486	4.39
415.694	4.43
415.902	4.5
416.109	4.53
416.317	4.54
416.525	4.48
416.733	4.41
416.941	4.19
417.149	4.2
417.357	4.24
417.564	4.27
417.772	4.22
417.98	4.3
418.188	4.35
418.395	4.24
418.603	4.2
418.811	4.36
419.019	4.42
419.226	4.44
419.434	4.52
419.642	4.53
419.849	4.47
420.057	4.45
420.265	4.25
420.472	4
420.68	4.08
420.887	4.03
421.095	4.02
421.302	4.08
421.51	4.3
421.717	4.17
421.925	4.11
422.132	4.09
422.34	4.18
422.547	4
422.755	3.97
422.962	3.99
423.17	3.92
423.377	3.8
423.585	3.78
423.792	3.88
423.999	3.95
424.207	3.97
424.414	4.1
424.621	4.24
424.829	4.15
425.036	4.15
425.243	4.08
425.451	4.11
425.658	4.09
425.865	4.22
426.072	4.15
426.28	4.28
426.487	4.3
426.694	4.3
426.901	4.06
427.108	4.02
427.315	3.92
427.523	3.71
427.73	3.7
427.937	3.94
428.144	3.91
428.351	4.08
428.558	4.1
428.765	4.14
428.972	3.91
429.179	3.77
429.386	3.67
429.593	3.76
429.8	3.71
430.007	3.83
430.214	4.09
430.421	4.12
430.628	4.04
430.835	4
431.042	4.13
431.249	4.04
431.456	3.94
431.662	3.91
431.869	4.01
432.076	3.93
432.283	3.96
432.49	3.99
432.697	3.98
432.903	3.88
433.11	3.82
433.317	3.89
433.524	3.94
433.73	3.97
433.937	4.02
434.144	4.12
434.35	4.16
434.557	4.18
434.764	4.28
434.97	4.22
435.177	4.23
435.384	4.09
435.59	3.98
435.797	4.07
436.003	4.1
436.21	4.05
436.416	4.18
436.623	4.37
436.829	4.19
437.036	4.21
437.242	4.17
437.449	4.09
437.655	4.04
437.862	4.13
438.068	4.07
438.275	4.14
438.481	4.18
438.687	4.11
438.894	4.05
439.1	4.13
439.307	4.17
439.513	4.15
439.719	4.19
439.926	4.31
440.132	4.38
440.338	4.38
440.544	4.42
440.751	4.45
440.957	4.46
441.163	4.45
441.369	4.45
441.575	4.35
441.782	4.45
441.988	4.34
442.194	4.23
442.4	4.18
442.606	4.27
442.812	4.2
443.018	4.28
443.224	4.4
443.431	4.42
443.637	4.36
443.843	4.3
444.049	4.3
444.255	4.21
444.461	4.26
444.667	4.3
444.873	4.34
445.079	4.33
445.284	4.47
445.49	4.43
445.696	4.47
445.902	4.44
446.108	4.48
446.314	4.42
446.52	4.49
446.726	4.51
446.931	4.59
447.137	4.59
447.343	4.63
447.549	4.59
447.755	4.55
447.96	4.46
448.166	4.44
448.372	4.39
448.578	4.42
448.783	4.43
448.989	4.55
449.195	4.51
449.4	4.57
449.606	4.52
449.812	4.53
450.017	4.55
450.223	4.54
450.428	4.53
450.634	4.57
450.84	4.6
451.045	4.52
451.251	4.49
451.456	4.47
451.662	4.48
451.867	4.44
452.073	4.45
452.278	4.52
452.483	4.54
452.689	4.56
452.894	4.54
453.1	4.51
453.305	4.57
453.51	4.54
453.716	4.51
453.921	4.58
454.127	4.62
454.332	4.54
454.537	4.55
454.742	4.53
454.948	4.49
455.153	4.47
455.358	4.47
455.563	4.47
455.769	4.56
455.974	4.55
456.179	4.52
456.384	4.46
456.589	4.52
456.795	4.42
457	4.44
457.205	4.46
457.41	4.5
457.615	4.44
457.82	4.44
458.025	4.44
458.23	4.42
458.435	4.47
458.64	4.46
458.845	4.47
459.05	4.45
459.255	4.51
459.46	4.48
459.665	4.44
459.87	4.46
460.075	4.47
460.28	4.33
460.485	4.33
460.69	4.46
460.895	4.47
461.099	4.48
461.304	4.64
461.509	4.69
461.714	4.6
461.919	4.66
462.123	4.6
462.328	4.58
462.533	4.54
462.738	4.66
462.942	4.64
463.147	4.72
463.352	4.66
463.556	4.74
463.761	4.56
463.966	4.52
464.17	4.56
464.375	4.59
464.58	4.64
464.784	4.66
464.989	4.73
465.193	4.66
465.398	4.69
465.602	4.65
465.807	4.72
466.011	4.72
466.216	4.81
466.42	4.74
466.625	4.67
466.829	4.7
467.034	4.67
467.238	4.7
467.443	4.69
467.647	4.73
467.851	4.76
468.056	4.71
468.26	4.62
468.464	4.74
468.669	4.73
468.873	4.79
