Data from Ofra_PS_Phys_2GT31_Reflection_3.txt Node
Date: Tue Jul 20 14:42:51 EDT 2021
User: USUARIO
Spectrometer: FLMT01687
Trigger mode: 0
Integration Time (sec): 1.200000E0
Scans to average: 2
Electric dark correction enabled: true
Nonlinearity correction enabled: false
Boxcar width: 2
XAxis mode: Wavelengths
Number of Pixels in Spectrum: 3648
>>>>>Begin Spectral Data<<<<<
179.494	116.22
179.716	445.45
179.937	-87.69
180.158	52.14
180.38	70.79
180.601	100.4
180.823	477.78
181.044	359.57
181.265	-399.1
181.486	-320.69
181.708	124.72
181.929	101.16
182.15	233.59
182.372	-1631.71
182.593	276.05
182.814	1340
183.035	5.11
183.257	45.45
183.478	120.21
183.699	62.85
183.92	26.88
184.141	36.42
184.363	65.8
184.584	50.59
184.805	52.87
185.026	57.38
185.247	66.65
185.468	56.52
185.689	56.65
185.91	54.87
186.132	62.7
186.353	64.63
186.574	66.39
186.795	67.32
187.016	65.82
187.237	55.4
187.458	44.9
187.679	52.26
187.9	66.71
188.121	68.12
188.342	79.14
188.563	110.91
188.784	79.1
189.005	91.4
189.226	95.18
189.447	102.64
189.667	87.07
189.888	88.15
190.109	72.44
190.33	70.05
190.551	65.47
190.772	51.47
190.993	56.24
191.214	48.99
191.434	55.84
191.655	56.19
191.876	79.05
192.097	76.84
192.318	74.91
192.538	75.45
192.759	74.78
192.98	68.65
193.201	52.23
193.421	47.97
193.642	42.16
193.863	46.79
194.083	56.55
194.304	71.9
194.525	77.32
194.745	96.33
194.966	105.72
195.187	90.12
195.407	97.76
195.628	71.39
195.848	42.22
196.069	40.63
196.29	47.03
196.51	50.08
196.731	47.99
196.951	54.08
197.172	48.04
197.392	52.68
197.613	46.54
197.833	50.02
198.054	50.45
198.274	48.29
198.495	46.06
198.715	44.44
198.936	38.36
199.156	47.86
199.377	-6.59
199.597	-18.34
199.817	18.57
200.038	17.65
200.258	3.38
200.479	35.89
200.699	23.63
200.919	24.48
201.14	52.77
201.36	62.14
201.58	61.87
201.801	62.08
202.021	60.99
202.241	46.1
202.461	42.61
202.682	46.89
202.902	48.2
203.122	40.08
203.342	46.85
203.563	36.41
203.783	35.98
204.003	26.49
204.223	44.11
204.443	44.71
204.663	48.03
204.884	62.71
205.104	100.63
205.324	91.67
205.544	76.24
205.764	90.27
205.984	62.23
206.204	44.72
206.424	45.91
206.644	50.14
206.864	27.05
207.084	53.62
207.304	42.75
207.525	40.31
207.745	41.46
207.964	50.76
208.184	58.04
208.404	54.77
208.624	58.82
208.844	60.87
209.064	72.55
209.284	52.77
209.504	54.77
209.724	42.47
209.944	45.95
210.164	35.81
210.384	41.86
210.604	53.93
210.823	48.93
211.043	61.55
211.263	53.11
211.483	52.77
211.703	52.39
211.922	64.86
212.142	45.52
212.362	45.68
212.582	32.1
212.801	34.45
213.021	40.86
213.241	48.65
213.461	51.64
213.68	63.87
213.9	56.91
214.12	55.74
214.339	46.66
214.559	41.42
214.779	47.23
214.998	45.77
215.218	31.87
215.438	38.85
215.657	48.55
215.877	41.06
216.096	47.28
216.316	57.12
216.535	49.93
216.755	54.18
216.974	60.32
217.194	51.5
217.413	57.19
217.633	65.38
217.852	78.61
218.072	76.57
218.291	85.42
218.511	75.57
218.73	56.99
218.95	47.13
219.169	42.03
219.389	28.44
219.608	22.53
219.827	46.25
220.047	50.45
220.266	58.09
220.485	79.82
220.705	84.47
220.924	65.15
221.143	58.75
221.363	58.08
221.582	49.45
221.801	35.99
222.021	45.34
222.24	37.94
222.459	23.79
222.678	24.32
222.897	30.97
223.117	14.88
223.336	29.34
223.555	25.54
223.774	30.39
223.993	40.01
224.213	46
224.432	44.3
224.651	54.06
224.87	63.17
225.089	70.78
225.308	81.89
225.527	88.21
225.746	104.81
225.965	107.46
226.184	93.48
226.404	67.99
226.623	65.37
226.842	42.7
227.061	40.94
227.28	44.64
227.499	49.84
227.718	42.11
227.936	66.39
228.155	59.31
228.374	56.32
228.593	51.79
228.812	45.51
229.031	37.85
229.25	33.65
229.469	31.32
229.688	29.26
229.907	39.77
230.125	48.94
230.344	45.7
230.563	55.91
230.782	60.08
231.001	66.42
231.22	63.27
231.438	78.52
231.657	75.63
231.876	86.73
232.095	66.84
232.313	63.87
232.532	69.55
232.751	74.62
232.969	68.44
233.188	73.77
233.407	76.5
233.625	57.63
233.844	43.03
234.063	38.43
234.281	32.89
234.5	33.47
234.719	39.74
234.937	53.07
235.156	74.46
235.374	88.44
235.593	83.06
235.811	78.55
236.03	74.39
236.249	56.86
236.467	48.41
236.686	40.96
236.904	36.95
237.123	34.79
237.341	44.93
237.559	45.98
237.778	60.24
237.996	77.95
238.215	100.46
238.433	76.76
238.652	88.38
238.87	74.12
239.088	55.85
239.307	38.58
239.525	39.92
239.743	43.12
239.962	35.43
240.18	41.26
240.398	34.83
240.617	40.12
240.835	33.93
241.053	43.96
241.271	41.69
241.49	46.21
241.708	49.81
241.926	55.24
242.144	51.71
242.363	65.92
242.581	77.88
242.799	82.8
243.017	59.86
243.235	47.06
243.453	54.04
243.672	35.71
243.89	29.3
244.108	49.49
244.326	48.58
244.544	28.74
244.762	42.03
244.98	41.09
245.198	41.87
245.416	50.43
245.634	55.55
245.852	76.02
246.07	89.1
246.288	76.53
246.506	81.04
246.724	75.21
246.942	42.16
247.16	40.49
247.378	47.61
247.596	50.98
247.814	55.06
248.032	59.33
248.25	47.09
248.468	54.79
248.685	40.78
248.903	36.22
249.121	55.4
249.339	60.86
249.557	59.09
249.775	64.04
249.992	49.01
250.21	37.48
250.428	37.9
250.646	29.59
250.863	36.62
251.081	49.44
251.299	49.19
251.517	55.6
251.734	58.19
251.952	57.31
252.17	49.53
252.387	51.76
252.605	52.06
252.823	37.04
253.04	32.19
253.258	43.55
253.475	51.06
253.693	46.44
253.911	60.14
254.128	73.1
254.346	66.7
254.563	48.6
254.781	51.69
254.998	44.24
255.216	36.91
255.433	37.24
255.651	52.67
255.868	60.52
256.086	61.29
256.303	58.52
256.521	61.1
256.738	57.93
256.956	38.39
257.173	40.95
257.39	40.09
257.608	33.82
257.825	46.79
258.043	48.78
258.26	45.21
258.477	60.36
258.695	55.16
258.912	33.33
259.129	50.62
259.346	48.65
259.564	37.59
259.781	33.55
259.998	51.83
260.216	42.71
260.433	44.19
260.65	56.37
260.867	60.27
261.084	54.8
261.302	56.23
261.519	45.91
261.736	30.27
261.953	36.58
262.17	46.07
262.387	44.79
262.604	54.68
262.822	62.51
263.039	54.79
263.256	47.86
263.473	52.47
263.69	47.64
263.907	39.28
264.124	42.72
264.341	45.61
264.558	38.44
264.775	45.48
264.992	54.94
265.209	79.14
265.426	72.04
265.643	78.84
265.86	69.82
266.077	75.14
266.294	66.48
266.51	63.93
266.727	59.68
266.944	53.15
267.161	35.95
267.378	28.23
267.595	18.9
267.812	18.17
268.028	23.25
268.245	26.96
268.462	32.75
268.679	34.59
268.896	28.17
269.112	40.99
269.329	46.31
269.546	43.98
269.763	47.13
269.979	53.34
270.196	61.01
270.413	51.9
270.629	56.77
270.846	53.94
271.063	45.25
271.279	40.84
271.496	39.78
271.712	53.07
271.929	45.85
272.146	57.04
272.362	51.69
272.579	57.28
272.795	38.94
273.012	44.53
273.228	37.16
273.445	32.55
273.661	34.38
273.878	29.65
274.094	39.06
274.311	34.18
274.527	26.08
274.744	31.34
274.96	35.1
275.177	17.72
275.393	25.8
275.609	43.46
275.826	35.54
276.042	45.62
276.259	36.56
276.475	32.93
276.691	33.11
276.908	36.67
277.124	42.44
277.34	51.11
277.557	61.46
277.773	55.07
277.989	55.49
278.205	44.94
278.422	35.1
278.638	34.93
278.854	46.27
279.07	45.59
279.286	45.72
279.503	55.11
279.719	38.61
279.935	33.5
280.151	35.56
280.367	44.72
280.583	49.91
280.799	68.57
281.016	78.79
281.232	73.01
281.448	67.3
281.664	69.67
281.88	58.71
282.096	44.7
282.312	55.09
282.528	48.3
282.744	41.73
282.96	48.9
283.176	50.65
283.392	37.49
283.608	39.2
283.824	40.01
284.04	26.54
284.256	31.15
284.471	36.76
284.687	35.1
284.903	32.52
285.119	45.99
285.335	58.2
285.551	49.45
285.767	57.86
285.982	71.17
286.198	55.37
286.414	46.04
286.63	58.49
286.846	49.13
287.061	44.78
287.277	54.52
287.493	54.48
287.709	48.14
287.924	47.25
288.14	38.51
288.356	36.38
288.571	32.63
288.787	25.31
289.003	22.35
289.218	15.81
289.434	23.94
289.65	19.88
289.865	21.32
290.081	33.68
290.296	33.33
290.512	21.7
290.727	27.39
290.943	29.43
291.159	13.01
291.374	22.31
291.59	31.52
291.805	35.62
292.021	42.93
292.236	54.54
292.451	67.03
292.667	63
292.882	59.61
293.098	44.79
293.313	60.96
293.529	40.41
293.744	33.78
293.959	21.56
294.175	36.77
294.39	25.09
294.605	38.94
294.821	36.73
295.036	54.46
295.251	63.58
295.467	55.85
295.682	56.61
295.897	63.47
296.112	63.49
296.328	63.6
296.543	77.38
296.758	71.65
296.973	58.49
297.188	70.19
297.404	58.15
297.619	54.14
297.834	54.92
298.049	72.58
298.264	68.41
298.479	69.4
298.694	59.17
298.909	64.08
299.125	58.58
299.34	40.66
299.555	57.35
299.77	62.68
299.985	50.51
300.2	49.81
300.415	55.9
300.63	44.61
300.845	38.24
301.06	52.74
301.275	43.72
301.49	42.57
301.704	41.22
301.919	45.58
302.134	42.28
302.349	47.13
302.564	54.61
302.779	54.09
302.994	50.89
303.209	58.63
303.423	60.14
303.638	46.96
303.853	50.63
304.068	52.63
304.283	48.29
304.497	48.87
304.712	56
304.927	50.55
305.142	64.14
305.356	69.44
305.571	58.05
305.786	58.37
306	59.37
306.215	43.49
306.43	43.61
306.644	60.48
306.859	49.41
307.074	46.34
307.288	40.33
307.503	26.12
307.717	20.54
307.932	16.92
308.147	9.16
308.361	31.94
308.576	36.85
308.79	32.07
309.005	42.23
309.219	48.93
309.434	37.46
309.648	39.62
309.863	26.05
310.077	11.59
310.292	17.63
310.506	12.43
310.72	13.64
310.935	26.6
311.149	35.58
311.364	34.51
311.578	54.07
311.792	56.35
312.007	62.84
312.221	66.08
312.435	70.71
312.649	62.74
312.864	79.93
313.078	78.27
313.292	69.66
313.507	60.72
313.721	52.85
313.935	32.68
314.149	31.16
314.363	35.47
314.578	37.25
314.792	36.99
315.006	42.87
315.22	38.51
315.434	47.54
315.648	57.22
315.862	58.01
316.077	49.32
316.291	48.31
316.505	38.99
316.719	33.24
316.933	46.45
317.147	48.57
317.361	54.64
317.575	59.26
317.789	51.63
318.003	41.85
318.217	51.54
318.431	35.19
318.645	44.91
318.859	36.3
319.073	42.44
319.287	34.71
319.5	33.8
319.714	34.37
319.928	36.26
320.142	28.4
320.356	38.56
320.57	46.48
320.784	39.46
320.997	43.96
321.211	55.15
321.425	53.99
321.639	42.69
321.853	54.38
322.066	53.57
322.28	33.48
322.494	36.08
322.707	41.04
322.921	31.78
323.135	32.86
323.349	43.21
323.562	35.7
323.776	44.15
323.989	51.06
324.203	44.94
324.417	32
324.63	27.71
324.844	19.46
325.057	8.14
325.271	19.99
325.485	19.56
325.698	31.06
325.912	33.9
326.125	41.45
326.339	39.68
326.552	38.37
326.766	18.29
326.979	19.62
327.193	24.13
327.406	26.71
327.619	33.05
327.833	50.22
328.046	53.21
328.26	43.22
328.473	43.14
328.686	56.18
328.9	50.37
329.113	48.02
329.326	48.33
329.54	42.33
329.753	29.44
329.966	30.81
330.179	36.19
330.393	43.01
330.606	49.1
330.819	54.31
331.032	46.4
331.246	37.31
331.459	42.13
331.672	36.73
331.885	38.64
332.098	42.14
332.311	53.75
332.525	53.39
332.738	44.56
332.951	46.7
333.164	52.64
333.377	52.79
333.59	58.42
333.803	68.12
334.016	73.87
334.229	65.97
334.442	59.05
334.655	58.34
334.868	64.18
335.081	58.82
335.294	54.31
335.507	43.43
335.72	27.13
335.933	22.29
336.146	23.03
336.359	34.85
336.572	47.22
336.785	46.98
336.997	34.83
337.21	20.52
337.423	9.34
337.636	8.52
337.849	23.01
338.062	26.99
338.274	33.38
338.487	42.06
338.7	34.57
338.913	28.13
339.125	27.64
339.338	27.12
339.551	15.53
339.763	12.82
339.976	37.74
340.189	50.56
340.402	63.26
340.614	64.44
340.827	71.97
341.039	67.2
341.252	59.24
341.465	49.58
341.677	46.64
341.89	45.75
342.102	40.41
342.315	53.27
342.527	57.41
342.74	63.24
342.952	67.06
343.165	64.3
343.377	51.98
343.59	43.25
343.802	41.04
344.015	36.11
344.227	35.62
344.44	40.5
344.652	50.57
344.864	47.08
345.077	35.68
345.289	42.05
345.502	47.15
345.714	31.76
345.926	28.42
346.139	52.09
346.351	42.16
346.563	39.51
346.775	51.75
346.988	47.95
347.2	38.86
347.412	41.63
347.624	38.14
347.837	30.8
348.049	28.71
348.261	22.13
348.473	33.66
348.685	38.53
348.897	32.61
349.11	34.06
349.322	40.4
349.534	29.72
349.746	20.17
349.958	41.04
350.17	42.79
350.382	33.06
350.594	33.84
350.806	42.27
351.018	36.57
351.23	40.46
351.442	49.25
351.654	43.95
351.866	50.7
352.078	56.6
352.29	48.04
352.502	40.81
352.714	40.88
352.926	29.32
353.138	31.52
353.35	27.64
353.561	24.66
353.773	33.85
353.985	41.93
354.197	32.81
354.409	33.57
354.621	41.45
354.832	30.86
355.044	30.07
355.256	30.69
355.468	25.42
355.679	24.78
355.891	41.05
356.103	51.15
356.314	54.76
356.526	66.48
356.738	60.75
356.949	57.37
357.161	65.27
357.373	59.25
357.584	54.48
357.796	56.12
358.008	51.54
358.219	32.49
358.431	38.5
358.642	45.82
358.854	47.72
359.065	41.23
359.277	33.1
359.488	34.21
359.7	34.18
359.911	28.47
360.123	35.43
360.334	47.64
360.546	44.73
360.757	37.45
360.969	36.13
361.18	31.33
361.391	32.58
361.603	30.27
361.814	30.97
362.025	37.55
362.237	50.76
362.448	39.96
362.659	31.03
362.871	34.41
363.082	27.79
363.293	27.45
363.504	32.12
363.716	35.81
363.927	24.5
364.138	29.71
364.349	24.31
364.56	26.67
364.772	30.69
364.983	36.73
365.194	28.68
365.405	22.04
365.616	30.55
365.827	31.09
366.038	28.76
366.25	31.57
366.461	32.88
366.672	28.7
366.883	34.57
367.094	42.12
367.305	45.78
367.516	41.73
367.727	34.61
367.938	31.44
368.149	22.83
368.36	18.97
368.571	20.26
368.781	22.56
368.992	13.81
369.203	8.96
369.414	5.39
369.625	12.97
369.836	14.36
370.047	25.51
370.258	31.22
370.468	40.33
370.679	36.2
370.89	38.75
371.101	30.46
371.312	24.01
371.522	20.56
371.733	23.35
371.944	29.1
372.155	38.92
372.365	37.64
372.576	40.29
372.787	37.48
372.997	31.47
373.208	28.41
373.419	29.72
373.629	30.16
373.84	34.75
374.05	37.55
374.261	26.13
374.472	35.95
374.682	40.62
374.893	37.66
375.103	37.28
375.314	50.66
375.524	42.39
375.735	35.1
375.945	40.33
376.156	37.87
376.366	31.3
376.577	25.95
376.787	25.86
376.997	28.15
377.208	33.58
377.418	27.84
377.629	39.27
377.839	38.6
378.049	36.34
378.26	32.02
378.47	34.65
378.68	36.48
378.89	37.02
379.101	34.12
379.311	33.82
379.521	41.91
379.732	38.83
379.942	28.17
380.152	31.9
380.362	23.98
380.572	14.3
380.783	14.91
380.993	29.03
381.203	29.04
381.413	32.05
381.623	31.87
381.833	31.46
382.043	26.36
382.253	17.78
382.463	20.74
382.674	21.9
382.884	20.87
383.094	23.35
383.304	30.11
383.514	27.84
383.724	29.36
383.934	29.08
384.144	30.15
384.353	24.36
384.563	25.18
384.773	25.95
384.983	28.5
385.193	29.3
385.403	34.04
385.613	29.75
385.823	23.24
386.033	19.49
386.242	16.85
386.452	15.85
386.662	19.51
386.872	27.42
387.082	22.77
387.291	21.96
387.501	22.69
387.711	21.62
387.921	19.15
388.13	19.96
388.34	21.02
388.55	19.98
388.759	19.68
388.969	18.02
389.179	24.09
389.388	22.27
389.598	19.05
389.807	20.16
390.017	21.03
390.227	15.18
390.436	13.91
390.646	15.06
390.855	15.87
391.065	12.93
391.274	14.07
391.484	15.75
391.693	15.3
391.903	13.95
392.112	15.81
392.322	16.03
392.531	16.04
392.74	15.61
392.95	13.99
393.159	12.58
393.369	13.23
393.578	10.81
393.787	10.95
393.997	12.42
394.206	12.73
394.415	13.13
394.625	15.07
394.834	14.41
395.043	13.21
395.252	12.82
395.462	11.55
395.671	10.1
395.88	9.68
396.089	9.06
396.298	8.77
396.508	9.32
396.717	9.2
396.926	9.55
397.135	9.26
397.344	9.18
397.553	9.41
397.762	9.27
397.971	8.21
398.181	8.54
398.39	8.18
398.599	7.09
398.808	6.87
399.017	7.51
399.226	7.71
399.435	7.77
399.644	7.71
399.853	8.01
400.062	8.01
400.27	7.49
400.479	7.74
400.688	8.18
400.897	7.95
401.106	7.91
401.315	8.13
401.524	7.97
401.733	7.84
401.941	7.9
402.15	7.59
402.359	7.49
402.568	7.66
402.777	7.37
402.985	7.5
403.194	7.54
403.403	7.41
403.612	7.16
403.82	7.14
404.029	6.78
404.238	6.93
404.446	6.89
404.655	6.9
404.864	6.75
405.072	6.84
405.281	6.72
405.489	6.81
405.698	6.76
405.906	6.92
406.115	6.94
406.324	6.72
406.532	6.65
406.741	6.44
406.949	6.25
407.158	6.2
407.366	6.31
407.574	6.42
407.783	6.48
407.991	6.51
408.2	6.67
408.408	6.7
408.617	6.46
408.825	6.58
409.033	6.61
409.242	6.35
409.45	6.26
409.658	6.2
409.867	6.01
410.075	6.06
410.283	6.1
410.491	6.13
410.7	6.12
410.908	6.2
411.116	6.12
411.324	6.08
411.533	6.04
411.741	6.06
411.949	6.05
412.157	6.03
412.365	6.08
412.573	6.08
412.781	6.09
412.99	5.94
413.198	5.88
413.406	5.74
413.614	5.63
413.822	5.58
414.03	5.77
414.238	5.8
414.446	5.78
414.654	5.79
414.862	5.91
415.07	5.85
415.278	5.74
415.486	5.76
415.694	5.72
415.902	5.63
416.109	5.55
416.317	5.67
416.525	5.59
416.733	5.57
416.941	5.51
417.149	5.48
417.357	5.45
417.564	5.56
417.772	5.62
417.98	5.61
418.188	5.53
418.395	5.55
418.603	5.47
418.811	5.57
419.019	5.69
419.226	5.8
419.434	5.77
419.642	5.72
419.849	5.6
420.057	5.47
420.265	5.41
420.472	5.34
420.68	5.49
420.887	5.39
421.095	5.29
421.302	5.28
421.51	5.33
421.717	5.23
421.925	5.22
422.132	5.29
422.34	5.24
422.547	5.11
422.755	5.06
422.962	5.18
423.17	5.32
423.377	5.28
423.585	5.43
423.792	5.43
423.999	5.26
424.207	5.2
424.414	5.3
424.621	5.15
424.829	5.07
425.036	5.07
425.243	4.95
425.451	4.99
425.658	5.12
425.865	5.27
426.072	5.26
426.28	5.2
426.487	5.17
426.694	5.08
426.901	5
427.108	4.99
427.315	5.04
427.523	5
427.73	5.12
427.937	5.2
428.144	5.32
428.351	5.41
428.558	5.46
428.765	5.3
428.972	5.19
429.179	5.09
429.386	5.05
429.593	5.03
429.8	5.08
430.007	5.07
430.214	5.23
430.421	5.23
430.628	5.17
430.835	5.07
431.042	5.2
431.249	5.1
431.456	5.05
431.662	5.12
431.869	5.25
432.076	5.38
432.283	5.41
432.49	5.55
432.697	5.53
432.903	5.45
433.11	5.2
433.317	5.27
433.524	5.25
433.73	5.26
433.937	5.26
434.144	5.25
434.35	5.28
434.557	5.21
434.764	5.17
434.97	5.21
435.177	5.35
435.384	5.34
435.59	5.3
435.797	5.44
436.003	5.46
436.21	5.33
436.416	5.33
436.623	5.48
436.829	5.45
437.036	5.49
437.242	5.55
437.449	5.61
437.655	5.55
437.862	5.47
438.068	5.46
438.275	5.57
438.481	5.58
438.687	5.44
438.894	5.5
439.1	5.64
439.307	5.6
439.513	5.49
439.719	5.68
439.926	5.86
440.132	5.88
440.338	5.93
440.544	6.04
440.751	6.05
440.957	5.94
441.163	5.78
441.369	5.8
441.575	5.73
441.782	5.8
441.988	5.81
442.194	5.8
442.4	5.8
442.606	5.89
442.812	5.85
443.018	5.8
443.224	5.95
443.431	5.9
443.637	5.82
443.843	5.8
444.049	5.84
444.255	5.72
444.461	5.8
444.667	5.85
444.873	5.9
445.079	5.9
445.284	6
445.49	5.96
445.696	5.94
445.902	5.94
446.108	6.03
446.314	6.06
446.52	6.03
446.726	6.11
446.931	6.08
447.137	6.12
447.343	6.1
447.549	6.14
447.755	6.14
447.96	6.19
448.166	6.12
448.372	6.1
448.578	6.15
448.783	6.16
448.989	6.23
449.195	6.17
449.4	6.21
449.606	6.18
449.812	6.2
450.017	6.19
450.223	6.21
450.428	6.26
450.634	6.33
450.84	6.31
451.045	6.26
451.251	6.34
451.456	6.27
451.662	6.22
451.867	6.22
452.073	6.26
452.278	6.23
452.483	6.28
452.689	6.33
452.894	6.27
453.1	6.28
453.305	6.23
453.51	6.18
453.716	6.14
453.921	6.26
454.127	6.21
454.332	6.26
454.537	6.21
454.742	6.23
454.948	6.2
455.153	6.32
455.358	6.32
455.563	6.25
455.769	6.29
455.974	6.3
456.179	6.25
456.384	6.3
456.589	6.47
456.795	6.43
457	6.48
457.205	6.46
457.41	6.44
457.615	6.39
457.82	6.4
458.025	6.37
458.23	6.35
458.435	6.36
458.64	6.32
458.845	6.35
459.05	6.26
459.255	6.32
459.46	6.27
459.665	6.3
459.87	6.31
460.075	6.44
460.28	6.42
460.485	6.45
460.69	6.61
460.895	6.57
461.099	6.56
461.304	6.59
461.509	6.68
461.714	6.58
461.919	6.62
462.123	6.66
462.328	6.69
462.533	6.65
462.738	6.73
462.942	6.7
463.147	6.73
463.352	6.69
463.556	6.73
463.761	6.63
463.966	6.67
464.17	6.65
464.375	6.63
464.58	6.71
464.784	6.71
464.989	6.72
465.193	6.68
465.398	6.71
465.602	6.68
465.807	6.74
466.011	6.81
466.216	6.85
466.42	6.83
466.625	6.84
466.829	6.87
467.034	6.8
467.238	6.84
