Data from Ofra_PS_Phys_1GT42_Reflection_1.txt Node
Date: Tue Jul 20 17:51:27 EDT 2021
User: USUARIO
Spectrometer: FLMT01687
Trigger mode: 0
Integration Time (sec): 1.042999E0
Scans to average: 2
Electric dark correction enabled: true
Nonlinearity correction enabled: false
Boxcar width: 2
XAxis mode: Wavelengths
Number of Pixels in Spectrum: 3648
>>>>>Begin Spectral Data<<<<<
179.494	-1.01
179.716	-48.85
179.937	-82.49
180.158	-655.71
180.38	-447.19
180.601	434.22
180.823	288.65
181.044	-129.64
181.265	-934.3
181.486	-11.6
181.708	-36.02
181.929	-47.92
182.15	57.76
182.372	-220.07
182.593	7.47
182.814	-5.36
183.035	15.42
183.257	35.25
183.478	47.58
183.699	55.03
183.92	59.93
184.141	82.55
184.363	66.61
184.584	57.19
184.805	71.59
185.026	88.61
185.247	92.56
185.468	86.67
185.689	89.04
185.91	72.09
186.132	60.28
186.353	40.2
186.574	49.53
186.795	58.8
187.016	55.46
187.237	50.04
187.458	34.39
187.679	42.61
187.9	46.81
188.121	89.93
188.342	35.92
188.563	43.12
188.784	44.17
189.005	51.96
189.226	55.36
189.447	73.39
189.667	81.42
189.888	89.79
190.109	92.9
190.33	83.34
190.551	100.12
190.772	99.52
190.993	95.78
191.214	96.63
191.434	85.73
191.655	68.91
191.876	57.01
192.097	52.29
192.318	75.87
192.538	90.84
192.759	69.92
192.98	64.85
193.201	88.11
193.421	48.49
193.642	69.72
193.863	77.47
194.083	83.62
194.304	72.79
194.525	84.38
194.745	60.35
194.966	45.42
195.187	51.49
195.407	51.49
195.628	71.13
195.848	58.58
196.069	83.23
196.29	61.87
196.51	65.8
196.731	53.91
196.951	57.97
197.172	47.46
197.392	72.22
197.613	59.83
197.833	78.8
198.054	69.11
198.274	66.7
198.495	53.68
198.715	61.67
198.936	52.04
199.156	55.48
199.377	56.77
199.597	71.58
199.817	57.87
200.038	69.75
200.258	70.57
200.479	105.17
200.699	115.5
200.919	110.13
201.14	111.6
201.36	94.36
201.58	24.28
201.801	53.07
202.021	78.37
202.241	37.66
202.461	176.32
202.682	186.71
202.902	178.66
203.122	107.19
203.342	138.01
203.563	113.17
203.783	108.11
204.003	113.5
204.223	139.25
204.443	186.62
204.663	100.61
204.884	139.24
205.104	99.48
205.324	99.33
205.544	69.61
205.764	84.15
205.984	65.11
206.204	35.13
206.424	37.41
206.644	24.48
206.864	28.26
207.084	25.7
207.304	39.84
207.525	17.35
207.745	20.52
207.964	9.87
208.184	32.06
208.404	31.3
208.624	43.45
208.844	61.98
209.064	62.82
209.284	59.16
209.504	81.97
209.724	70.97
209.944	72.53
210.164	74.45
210.384	96.58
210.604	87.9
210.823	107.2
211.043	69.98
211.263	68.72
211.483	50.02
211.703	38.97
211.922	35.27
212.142	56.86
212.362	43.03
212.582	48.58
212.801	39.45
213.021	64.22
213.241	64.28
213.461	122.61
213.68	106.54
213.9	128.05
214.12	103.79
214.339	122.34
214.559	69.77
214.779	58.38
214.998	99
215.218	109.65
215.438	85.1
215.657	75.11
215.877	85.03
216.096	76.3
216.316	53.01
216.535	55.64
216.755	60.94
216.974	43.73
217.194	48.55
217.413	49.81
217.633	41.81
217.852	32.04
218.072	34.46
218.291	21.26
218.511	30.25
218.73	16.42
218.95	18.49
219.169	23.83
219.389	28.53
219.608	11.72
219.827	50.71
220.047	61.49
220.266	70.01
220.485	50.25
220.705	67.94
220.924	43.89
221.143	49.43
221.363	48.56
221.582	64.6
221.801	52.61
222.021	103.13
222.24	54.28
222.459	43.44
222.678	46.9
222.897	50.67
223.117	48.72
223.336	56.46
223.555	51.58
223.774	45.39
223.993	40.35
224.213	25
224.432	59.98
224.651	51.43
224.87	51.51
225.089	32.89
225.308	44.2
225.527	31.25
225.746	32.12
225.965	37.97
226.184	66.24
226.404	66.54
226.623	47.67
226.842	68.92
227.061	61.63
227.28	45.56
227.499	32.7
227.718	44.49
227.936	54.46
228.155	50.95
228.374	41.4
228.593	48.65
228.812	47.37
229.031	34.61
229.25	30.4
229.469	53.16
229.688	47.68
229.907	52.25
230.125	50.1
230.344	56.91
230.563	40.23
230.782	40.29
231.001	31.16
231.22	24.84
231.438	25.65
231.657	24.38
231.876	34.92
232.095	30.68
232.313	34.5
232.532	32.31
232.751	34.68
232.969	37.29
233.188	57.14
233.407	60.66
233.625	88.45
233.844	87.61
234.063	82.85
234.281	73.99
234.5	82.58
234.719	79.69
234.937	89.9
235.156	85.44
235.374	93.81
235.593	102.04
235.811	120.83
236.03	64.89
236.249	39.56
236.467	51.18
236.686	35.84
236.904	37.53
237.123	52.81
237.341	78.87
237.559	76.05
237.778	82.95
237.996	80.64
238.215	85.63
238.433	57.23
238.652	42.04
238.87	23.57
239.088	11.64
239.307	28.22
239.525	34.21
239.743	37.8
239.962	38.19
240.18	40.78
240.398	22
240.617	38.03
240.835	47.98
241.053	66.63
241.271	66.13
241.49	68.31
241.708	54.6
241.926	43.56
242.144	29.36
242.363	25.12
242.581	22.87
242.799	20
243.017	26.73
243.235	25.69
243.453	15.24
243.672	25.04
243.89	29.75
244.108	42.6
244.326	40.57
244.544	48.73
244.762	41.63
244.98	28.42
245.198	13.33
245.416	31.32
245.634	45.77
245.852	49.76
246.07	76.8
246.288	88.42
246.506	85
246.724	79.16
246.942	70.05
247.16	55.92
247.378	47.18
247.596	50.53
247.814	42.35
248.032	44.54
248.25	36.85
248.468	45.81
248.685	40.61
248.903	36.37
249.121	33.28
249.339	30.37
249.557	37.13
249.775	44.82
249.992	49.71
250.21	45.91
250.428	31.56
250.646	13.56
250.863	19.27
251.081	24.39
251.299	25.45
251.517	46.28
251.734	70.36
251.952	57.12
252.17	63.91
252.387	61.93
252.605	46.52
252.823	51.26
253.04	62.05
253.258	62.09
253.475	55.39
253.693	78.82
253.911	73.91
254.128	72.74
254.346	70.52
254.563	78.18
254.781	68.39
254.998	93.21
255.216	75.83
255.433	66.82
255.651	48.94
255.868	47.42
256.086	40.29
256.303	30.73
256.521	34.95
256.738	36.98
256.956	44.06
257.173	37.31
257.39	56.84
257.608	51.83
257.825	97.6
258.043	75.77
258.26	80.41
258.477	82.72
258.695	76.9
258.912	45.42
259.129	64.03
259.346	52.82
259.564	40.7
259.781	56.3
259.998	55.04
260.216	47.93
260.433	51.04
260.65	59.65
260.867	49.49
261.084	54.34
261.302	55.75
261.519	54.43
261.736	35.47
261.953	29.45
262.17	28.04
262.387	13.81
262.604	-0.04
262.822	25.69
263.039	33.65
263.256	34.93
263.473	30.78
263.69	37.07
263.907	52.64
264.124	56.46
264.341	68.3
264.558	86.75
264.775	92.64
264.992	96
265.209	71.02
265.426	45.69
265.643	17.07
265.86	-5.98
266.077	-16.86
266.294	6.14
266.51	32.83
266.727	75.68
266.944	100.31
267.161	93.68
267.378	77.07
267.595	68.86
267.812	46.85
268.028	40.93
268.245	44.63
268.462	39.91
268.679	27.71
268.896	46.94
269.112	58.59
269.329	59.04
269.546	48.88
269.763	67.9
269.979	44.02
270.196	28.2
270.413	37.61
270.629	31.2
270.846	28.77
271.063	22.53
271.279	19.39
271.496	10.97
271.712	38.19
271.929	33.89
272.146	44.53
272.362	57.57
272.579	41.84
272.795	15.22
273.012	45.64
273.228	30.23
273.445	25.88
273.661	43.94
273.878	47.88
274.094	29.79
274.311	39.63
274.527	39.64
274.744	19.71
274.96	26.08
275.177	16.18
275.393	12.49
275.609	23.64
275.826	53.87
276.042	47.19
276.259	62.77
276.475	69.42
276.691	67.21
276.908	54.88
277.124	70.69
277.34	48.88
277.557	44.06
277.773	33.34
277.989	32.99
278.205	20.63
278.422	60.57
278.638	62.92
278.854	74.86
279.07	77.33
279.286	72.29
279.503	43.48
279.719	34.17
279.935	35.97
280.151	48.01
280.367	62.73
280.583	91.98
280.799	102.64
281.016	71.72
281.232	65.61
281.448	43.71
281.664	40.95
281.88	22.19
282.096	16.46
282.312	21.44
282.528	31.72
282.744	19.05
282.96	25.69
283.176	33.88
283.392	18.03
283.608	8.37
283.824	8.16
284.04	24.01
284.256	24.21
284.471	59.43
284.687	77.36
284.903	80.04
285.119	49.32
285.335	52.58
285.551	27.28
285.767	26.11
285.982	44.38
286.198	62.59
286.414	47.96
286.63	48.58
286.846	59.58
287.061	51.36
287.277	65.43
287.493	79.28
287.709	95.88
287.924	78.43
288.14	82.67
288.356	63.79
288.571	66.54
288.787	35.64
289.003	14.9
289.218	30.4
289.434	35.24
289.65	19.09
289.865	31.53
290.081	47.87
290.296	35.74
290.512	40.37
290.727	44.82
290.943	27.62
291.159	41.14
291.374	30.04
291.59	15.47
291.805	22.95
292.021	45.4
292.236	49.55
292.451	53.6
292.667	57.71
292.882	54.42
293.098	59.93
293.313	42.45
293.529	52.87
293.744	50.54
293.959	41.39
294.175	36.99
294.39	25.14
294.605	9.91
294.821	3.47
295.036	0.26
295.251	23.82
295.467	41.37
295.682	44.3
295.897	49.66
296.112	52.05
296.328	50.75
296.543	31.92
296.758	34.55
296.973	33.02
297.188	48.13
297.404	34.9
297.619	41.11
297.834	24.89
298.049	7.77
298.264	8.9
298.479	13.34
298.694	20.45
298.909	37.27
299.125	57.55
299.34	95.15
299.555	84.99
299.77	113.95
299.985	133.34
300.2	97.72
300.415	55.29
300.63	59.83
300.845	45.51
301.06	27.55
301.275	34.94
301.49	36.58
301.704	36.41
301.919	39.13
302.134	27.3
302.349	32.61
302.564	35.98
302.779	38.11
302.994	44.75
303.209	49.82
303.423	45.48
303.638	27.79
303.853	34.75
304.068	35.75
304.283	32.84
304.497	29.97
304.712	49.17
304.927	44.28
305.142	19.45
305.356	25.61
305.571	29.17
305.786	21.38
306	16.76
306.215	39.88
306.43	39.35
306.644	47.39
306.859	60.34
307.074	56.79
307.288	52.75
307.503	59.87
307.717	50.29
307.932	27.98
308.147	35.58
308.361	26.72
308.576	22.48
308.79	27.19
309.005	35.1
309.219	23.39
309.434	30.38
309.648	18.93
309.863	18.29
310.077	57
310.292	80
310.506	71.91
310.72	77.18
310.935	70.63
311.149	53.26
311.364	48.31
311.578	57.43
311.792	47.39
312.007	60.57
312.221	42.14
312.435	37.07
312.649	27.44
312.864	42.84
313.078	38.25
313.292	62.87
313.507	54.92
313.721	61.33
313.935	70.63
314.149	70.89
314.363	55.39
314.578	62.52
314.792	51.13
315.006	45.33
315.22	51.49
315.434	40.97
315.648	28.22
315.862	30.09
316.077	3.89
316.291	0.81
316.505	10.65
316.719	25.81
316.933	31.23
317.147	41.81
317.361	31.98
317.575	52.98
317.789	50.37
318.003	51.03
318.217	46.88
318.431	47.56
318.645	29.91
318.859	32.7
319.073	44.61
319.287	35.4
319.5	50.91
319.714	47.73
319.928	48.11
320.142	32.11
320.356	37.53
320.57	36.25
320.784	33.18
320.997	37.63
321.211	35.62
321.425	55.34
321.639	57.14
321.853	69.75
322.066	66.81
322.28	69.59
322.494	49.05
322.707	50.59
322.921	49.78
323.135	33.44
323.349	30.11
323.562	15.23
323.776	6.54
323.989	11.5
324.203	8.15
324.417	-11.36
324.63	9.13
324.844	21.36
325.057	33.84
325.271	44.89
325.485	68.42
325.698	48.59
325.912	47.81
326.125	28.35
326.339	22.55
326.552	27.21
326.766	37.12
326.979	32.47
327.193	34.71
327.406	38.59
327.619	56
327.833	67.34
328.046	68.9
328.26	71.3
328.473	63.86
328.686	39.3
328.9	22.57
329.113	35.47
329.326	48.07
329.54	57.86
329.753	55.78
329.966	55.77
330.179	48.92
330.393	48.56
330.606	31.92
330.819	31.96
331.032	33.47
331.246	26.16
331.459	21.69
331.672	31.6
331.885	41.6
332.098	47.27
332.311	39.66
332.525	30.64
332.738	14.71
332.951	21.2
333.164	17.55
333.377	15.78
333.59	32
333.803	49.75
334.016	47.49
334.229	51.12
334.442	56
334.655	40.91
334.868	41.78
335.081	46.36
335.294	43.94
335.507	45.57
335.72	50.62
335.933	51.19
336.146	38.99
336.359	39.97
336.572	41.27
336.785	43.78
336.997	31.14
337.21	35.68
337.423	37.76
337.636	34.37
337.849	37.57
338.062	29.13
338.274	26.83
338.487	22.76
338.7	26.51
338.913	12.32
339.125	22.06
339.338	28.42
339.551	26.43
339.763	33.28
339.976	43.18
340.189	60.51
340.402	56.84
340.614	49.86
340.827	49.79
341.039	45.67
341.252	26.41
341.465	37.97
341.677	57.64
341.89	49.59
342.102	60.86
342.315	58.61
342.527	38.03
342.74	54.83
342.952	60.74
343.165	53.49
343.377	57.48
343.59	63.43
343.802	58.67
344.015	63.07
344.227	61.53
344.44	70.37
344.652	74.08
344.864	66.58
345.077	52.31
345.289	50.91
345.502	37.97
345.714	38.1
345.926	38.5
346.139	41.55
346.351	50.17
346.563	56.48
346.775	42.73
346.988	60.9
347.2	67.79
347.412	49.38
347.624	51.94
347.837	48.69
348.049	38.77
348.261	33.34
348.473	37.59
348.685	39.54
348.897	36.96
349.11	47.35
349.322	33.79
349.534	44.62
349.746	44.5
349.958	50.16
350.17	49.74
350.382	70.01
350.594	58.75
350.806	67.65
351.018	68.37
351.23	59.18
351.442	53.34
351.654	54.69
351.866	48.13
352.078	40.06
352.29	36.47
352.502	30.54
352.714	38.83
352.926	33.46
353.138	23.03
353.35	25.05
353.561	36.97
353.773	27.5
353.985	37.64
354.197	51.52
354.409	50.95
354.621	61.75
354.832	45.38
355.044	20.19
355.256	16.14
355.468	23.34
355.679	18.61
355.891	33.98
356.103	57.19
356.314	54.07
356.526	44.96
356.738	36.13
356.949	42.11
357.161	51.17
357.373	59.82
357.584	63.32
357.796	42.52
358.008	40.5
358.219	31.51
358.431	27.71
358.642	32.86
358.854	52.01
359.065	43.56
359.277	31.06
359.488	32.09
359.7	14.7
359.911	-3.37
360.123	11.75
360.334	32.12
360.546	40.86
360.757	49.25
360.969	50.57
361.18	42.35
361.391	29.92
361.603	24.04
361.814	31.95
362.025	43.18
362.237	47.81
362.448	41.81
362.659	35.1
362.871	20.6
363.082	11.88
363.293	10.84
363.504	20.67
363.716	19.57
363.927	22.34
364.138	18.33
364.349	20.95
364.56	19.14
364.772	37.2
364.983	53.31
365.194	55.06
365.405	34.22
365.616	28.35
365.827	23.1
366.038	13.12
366.25	23.99
366.461	44.66
366.672	48.69
366.883	45.02
367.094	48.08
367.305	34.1
367.516	24.07
367.727	23.72
367.938	25.58
368.149	26.52
368.36	22.22
368.571	46.35
368.781	52.12
368.992	53.33
369.203	47.57
369.414	47.19
369.625	24.84
369.836	15.79
370.047	12.68
370.258	14.7
370.468	14.98
370.679	25.26
370.89	27.09
371.101	25.49
371.312	28.59
371.522	29.66
371.733	34.59
371.944	37.49
372.155	44.35
372.365	40.18
372.576	40.38
372.787	37.89
372.997	38.17
373.208	46.11
373.419	50.07
373.629	56.65
373.84	51.57
374.05	36.85
374.261	26.23
374.472	22.27
374.682	32.23
374.893	31.44
375.103	45.09
375.314	42.18
375.524	34.02
375.735	40.69
375.945	40.1
376.156	29.65
376.366	33.97
376.577	45.81
376.787	32.27
376.997	32.38
377.208	37.8
377.418	34.74
377.629	34.38
377.839	34.75
378.049	31.89
378.26	32.16
378.47	38.62
378.68	29.44
378.89	27.88
379.101	48.93
379.311	45.94
379.521	42.97
379.732	50.62
379.942	52.21
380.152	38.66
380.362	41.65
380.572	38.86
380.783	37.98
380.993	45.9
381.203	42.98
381.413	37.7
381.623	30.74
381.833	25.04
382.043	-1.25
382.253	-18.64
382.463	-6.06
382.674	-6.16
382.884	5
383.094	24.92
383.304	36.6
383.514	40.8
383.724	45.29
383.934	34.8
384.144	30.29
384.353	28.9
384.563	23.9
384.773	23.8
384.983	25.26
385.193	24.09
385.403	19.29
385.613	20.32
385.823	16.09
386.033	11.1
386.242	14.78
386.452	8.97
386.662	7.89
386.872	10
387.082	12.64
387.291	8.84
387.501	14.24
387.711	16.15
387.921	17.95
388.13	22.87
388.34	24.46
388.55	25.28
388.759	21.16
388.969	20.03
389.179	19.46
389.388	19.07
389.598	16.5
389.807	16.6
390.017	17.26
390.227	15.71
390.436	9.45
390.646	8.42
390.855	7.75
391.065	4.48
391.274	4.36
391.484	9.05
391.693	9.5
391.903	11.89
392.112	13.06
392.322	11.96
392.531	11.23
392.74	10.58
392.95	8.48
393.159	7.87
393.369	7.66
393.578	6.73
393.787	6.87
393.997	7.05
394.206	6.26
394.415	6.98
394.625	8.53
394.834	8.68
395.043	8.4
395.252	9.73
395.462	9.91
395.671	8.24
395.88	8.17
396.089	7.57
396.298	6.98
396.508	5.92
396.717	6.78
396.926	7.77
397.135	8.25
397.344	7.45
397.553	7.52
397.762	7.28
397.971	6.31
398.181	5.92
398.39	6.53
398.599	6.26
398.808	5.91
399.017	6.46
399.226	7.51
399.435	7.8
399.644	7.77
399.853	7.81
400.062	7.21
400.27	6.78
400.479	6.18
400.688	6.62
400.897	6.8
401.106	6.93
401.315	6.76
401.524	7.33
401.733	7.23
401.941	7.19
402.15	7.2
402.359	7.08
402.568	6.68
402.777	6.57
402.985	6.15
403.194	6.08
403.403	5.88
403.612	5.92
403.82	5.87
404.029	6.21
404.238	6.1
404.446	6.11
404.655	6.02
404.864	6.03
405.072	5.86
405.281	6.17
405.489	6.15
405.698	6.21
405.906	6.2
406.115	6.23
406.324	5.86
406.532	5.94
406.741	5.9
406.949	5.77
407.158	5.82
407.366	5.87
407.574	5.77
407.783	5.72
407.991	5.84
408.2	5.81
408.408	5.84
408.617	5.92
408.825	5.79
409.033	5.69
409.242	5.7
409.45	5.65
409.658	5.63
409.867	5.73
410.075	5.73
410.283	5.6
410.491	5.54
410.7	5.48
410.908	5.47
411.116	5.55
411.324	5.52
411.533	5.48
411.741	5.54
411.949	5.48
412.157	5.46
412.365	5.5
412.573	5.63
412.781	5.66
412.99	5.7
413.198	5.66
413.406	5.73
413.614	5.78
413.822	5.6
414.03	5.61
414.238	5.59
414.446	5.71
414.654	5.67
414.862	5.82
415.07	5.78
415.278	5.9
415.486	5.72
415.694	5.61
415.902	5.36
416.109	5.29
416.317	5.21
416.525	5.15
416.733	5.16
416.941	5.28
417.149	5.4
417.357	5.44
417.564	5.43
417.772	5.44
417.98	5.41
418.188	5.47
418.395	5.24
418.603	5.26
418.811	5.24
419.019	5.28
419.226	5.15
419.434	5.1
419.642	5.16
419.849	5.09
420.057	5.1
420.265	4.99
420.472	5.04
420.68	4.94
420.887	4.96
421.095	4.97
421.302	5
421.51	5.02
421.717	5.14
421.925	5.16
422.132	5.03
422.34	5.12
422.547	5.13
422.755	4.99
422.962	4.98
423.17	5.07
423.377	5.03
423.585	5.04
423.792	5.03
423.999	5.13
424.207	4.92
424.414	4.71
424.621	4.82
424.829	4.69
425.036	4.56
425.243	4.7
425.451	4.96
425.658	4.81
425.865	5.08
426.072	5.05
426.28	5.12
426.487	4.99
426.694	5.11
426.901	5.09
427.108	5.25
427.315	5.22
427.523	5.34
427.73	5.34
427.937	5.14
428.144	5.04
428.351	4.93
428.558	4.72
428.765	4.59
428.972	4.61
429.179	4.54
429.386	4.67
429.593	4.66
429.8	4.8
430.007	4.99
430.214	5.09
430.421	5.04
430.628	5.16
430.835	5.07
431.042	4.96
431.249	4.99
431.456	4.87
431.662	4.92
431.869	5.01
432.076	5.06
432.283	4.98
432.49	5.16
432.697	5.01
432.903	4.89
433.11	4.99
433.317	4.96
433.524	4.99
433.73	4.96
433.937	5.11
434.144	4.98
434.35	5.06
434.557	4.95
434.764	5.09
434.97	4.86
435.177	4.95
435.384	4.89
435.59	5
435.797	5.07
436.003	5.24
436.21	5.19
436.416	5.29
436.623	5.19
436.829	5.2
437.036	5.19
437.242	5.19
437.449	5.1
437.655	5.2
437.862	5.18
438.068	5.15
438.275	5.16
438.481	5.28
438.687	5.16
438.894	5.24
439.1	5.37
439.307	5.41
439.513	5.42
439.719	5.51
439.926	5.43
440.132	5.52
440.338	5.54
440.544	5.49
440.751	5.68
440.957	5.66
441.163	5.61
441.369	5.72
441.575	5.71
441.782	5.61
441.988	5.69
442.194	5.67
442.4	5.57
442.606	5.59
442.812	5.59
443.018	5.56
443.224	5.64
443.431	5.75
443.637	5.77
443.843	5.78
444.049	5.89
444.255	5.86
444.461	5.88
444.667	5.98
444.873	6.03
445.079	6.06
445.284	6.13
445.49	6.08
445.696	6.03
445.902	5.98
446.108	5.91
446.314	5.84
446.52	5.97
446.726	6.09
446.931	6.21
447.137	6.23
447.343	6.21
447.549	6.2
447.755	6.11
447.96	6.08
448.166	6.15
448.372	6.21
448.578	6.15
448.783	6.22
448.989	6.15
449.195	6.14
449.4	6.09
449.606	6.07
449.812	6.01
450.017	6.1
450.223	6.1
450.428	6.2
450.634	6.27
450.84	6.35
451.045	6.43
451.251	6.43
451.456	6.49
451.662	6.43
451.867	6.49
452.073	6.45
452.278	6.35
452.483	6.21
452.689	6.22
452.894	6.18
453.1	6.19
453.305	6.33
453.51	6.41
453.716	6.41
453.921	6.29
454.127	6.19
454.332	6.06
454.537	6.04
454.742	6.04
454.948	6.11
455.153	6.26
455.358	6.32
455.563	6.39
455.769	6.3
455.974	6.3
456.179	6.29
456.384	6.29
456.589	6.19
456.795	6.36
457	6.33
457.205	6.21
457.41	6.29
457.615	6.45
457.82	6.38
458.025	6.48
458.23	6.45
458.435	6.45
458.64	6.36
458.845	6.36
459.05	6.23
459.255	6.44
459.46	6.45
459.665	6.49
459.87	6.5
460.075	6.56
460.28	6.49
460.485	6.6
460.69	6.62
460.895	6.64
461.099	6.69
461.304	6.73
461.509	6.71
461.714	6.72
461.919	6.83
462.123	6.78
462.328	6.73
462.533	6.74
462.738	6.79
462.942	6.71
463.147	6.67
463.352	6.76
463.556	6.74
463.761	6.73
463.966	6.75
464.17	6.91
464.375	6.96
464.58	6.98
464.784	6.97
464.989	6.95
465.193	6.96
465.398	6.89
465.602	6.84
465.807	6.78
466.011	6.8
466.216	6.78
466.42	6.86
466.625	6.92
466.829	7.05
467.034	7.03
467.238	7.14
467.443	7.07
467.647	7.1
