Data from Ofra_PS_Phys_0GT1_Reflection_1.txt Node
Date: Tue Jul 20 14:45:34 EDT 2021
User: USUARIO
Spectrometer: FLMT01687
Trigger mode: 0
Integration Time (sec): 1.200000E0
Scans to average: 2
Electric dark correction enabled: true
Nonlinearity correction enabled: false
Boxcar width: 2
XAxis mode: Wavelengths
Number of Pixels in Spectrum: 3648
>>>>>Begin Spectral Data<<<<<
179.494	-94.29
179.716	-116.67
179.937	934.36
180.158	204.37
180.38	172.15
180.601	190.76
180.823	1021.4
181.044	439.24
181.265	-93.09
181.486	216.86
181.708	-436.7
181.929	-141.43
182.15	235.01
182.372	-1035.77
182.593	206.39
182.814	-5373.33
183.035	-18
183.257	39.34
183.478	83.99
183.699	45.8
183.92	38.17
184.141	10.9
184.363	3.26
184.584	-9.94
184.805	-19.49
185.026	5.06
185.247	11
185.468	13.32
185.689	30.85
185.91	26.38
186.132	32.49
186.353	37.4
186.574	35.75
186.795	31.49
187.016	54.02
187.237	50.99
187.458	54.14
187.679	61.37
187.9	67.18
188.121	33.09
188.342	71.96
188.563	79.38
188.784	71.41
189.005	70.74
189.226	98.96
189.447	64.35
189.667	67.25
189.888	53.55
190.109	51.66
190.33	43.24
190.551	43.54
190.772	27.82
190.993	30.87
191.214	27.77
191.434	25.18
191.655	25.55
191.876	23.27
192.097	32.41
192.318	50.53
192.538	75.27
192.759	59.37
192.98	82.09
193.201	69.37
193.421	49.95
193.642	42.17
193.863	43.09
194.083	38.84
194.304	36.81
194.525	33.4
194.745	30.06
194.966	26.79
195.187	17.96
195.407	12.81
195.628	15.89
195.848	8.07
196.069	20.76
196.29	11.38
196.51	35.44
196.731	23.99
196.951	28.49
197.172	36.31
197.392	43.34
197.613	25.08
197.833	34.25
198.054	39.47
198.274	40.71
198.495	31.46
198.715	22.11
198.936	46.85
199.156	44.2
199.377	-50.48
199.597	-24.92
199.817	3.23
200.038	-44.53
200.258	-35.98
200.479	8.61
200.699	-3
200.919	31.14
201.14	66.58
201.36	76.1
201.58	88.18
201.801	83.71
202.021	62.51
202.241	48.9
202.461	42.03
202.682	40.81
202.902	42.08
203.122	37.39
203.342	38.51
203.563	38.15
203.783	27.92
204.003	20.5
204.223	34.91
204.443	33.72
204.663	42.06
204.884	61.73
205.104	70.09
205.324	65.59
205.544	75.56
205.764	59.98
205.984	47.88
206.204	23.73
206.424	21.8
206.644	-1.64
206.864	0.22
207.084	25.2
207.304	51.81
207.525	44.34
207.745	55.56
207.964	48.64
208.184	45.91
208.404	31.59
208.624	47.54
208.844	33.77
209.064	45.23
209.284	30.8
209.504	35.26
209.724	17.67
209.944	24.81
210.164	7.39
210.384	15.01
210.604	23.38
210.823	34.93
211.043	42.39
211.263	27.52
211.483	32.06
211.703	34.6
211.922	34.19
212.142	36.89
212.362	41.59
212.582	38.41
212.801	48.56
213.021	40.4
213.241	38.7
213.461	45.57
213.68	38.85
213.9	31.59
214.12	29.94
214.339	36.4
214.559	32.76
214.779	49
214.998	44.64
215.218	50.49
215.438	41.36
215.657	51.85
215.877	31.42
216.096	33.04
216.316	31.81
216.535	28.17
216.755	29.64
216.974	36.54
217.194	46.84
217.413	51.79
217.633	59.08
217.852	82.96
218.072	78.66
218.291	83.07
218.511	67.46
218.73	46.44
218.95	34.08
219.169	25.75
219.389	9.91
219.608	0.61
219.827	3.65
220.047	13.96
220.266	18.02
220.485	12.92
220.705	44.13
220.924	37.16
221.143	34.04
221.363	37.32
221.582	38.97
221.801	16.58
222.021	22.21
222.24	28.1
222.459	24.24
222.678	13.27
222.897	26.3
223.117	32.79
223.336	29.19
223.555	26.45
223.774	33.43
223.993	34.5
224.213	24.37
224.432	23.12
224.651	39.03
224.87	42.52
225.089	43.96
225.308	52.69
225.527	55.05
225.746	21.18
225.965	33.86
226.184	33.68
226.404	26.66
226.623	18.09
226.842	36.42
227.061	43.35
227.28	52.32
227.499	62.96
227.718	55.78
227.936	45.06
228.155	41.01
228.374	25.73
228.593	26.78
228.812	39.62
229.031	41.87
229.25	35.03
229.469	42.15
229.688	38.59
229.907	34.53
230.125	33.45
230.344	22.77
230.563	17.89
230.782	7.82
231.001	-6.78
231.22	9.71
231.438	25.92
231.657	34.77
231.876	49.93
232.095	63.4
232.313	61.44
232.532	66.52
232.751	52.41
232.969	38.2
233.188	29.06
233.407	18.99
233.625	-11
233.844	1.07
234.063	9.78
234.281	6.4
234.5	10.18
234.719	21.89
234.937	35.11
235.156	40.86
235.374	50.49
235.593	45.92
235.811	44.29
236.03	40.82
236.249	31.55
236.467	33.58
236.686	22.99
236.904	22.26
237.123	9.91
237.341	13.07
237.559	19.31
237.778	37.45
237.996	30.8
238.215	42.65
238.433	34.09
238.652	19.37
238.87	-5.8
239.088	8.92
239.307	0.33
239.525	-10.27
239.743	14.57
239.962	28.35
240.18	30.58
240.398	26.36
240.617	33.04
240.835	33.81
241.053	36.45
241.271	33.74
241.49	39.66
241.708	41.72
241.926	48.93
242.144	43.17
242.363	35.56
242.581	36.06
242.799	32.07
243.017	-0.03
243.235	15.38
243.453	29.37
243.672	32.93
243.89	26.07
244.108	45.1
244.326	38.3
244.544	20.53
244.762	31.38
244.98	33.71
245.198	40.97
245.416	44.48
245.634	54.86
245.852	44.49
246.07	39.79
246.288	35.95
246.506	21.48
246.724	2.56
246.942	7.91
247.16	23.46
247.378	22.35
247.596	39.11
247.814	50.59
248.032	50.17
248.25	51.73
248.468	47.25
248.685	27.88
248.903	38.92
249.121	49.88
249.339	37.81
249.557	43.32
249.775	48.89
249.992	30.58
250.21	24.29
250.428	29.78
250.646	20.79
250.863	24.91
251.081	24.72
251.299	29.28
251.517	30.54
251.734	31.9
251.952	31.31
252.17	36.73
252.387	38.4
252.605	38.52
252.823	42.32
253.04	42.52
253.258	42.74
253.475	35.03
253.693	37.85
253.911	40.38
254.128	32.58
254.346	24.97
254.563	15.24
254.781	11.49
254.998	7.81
255.216	28.61
255.433	39.51
255.651	57.99
255.868	59.18
256.086	50.07
256.303	45.88
256.521	45.37
256.738	34.15
256.956	19.01
257.173	22.29
257.39	24.5
257.608	11.69
257.825	12.74
258.043	17.68
258.26	13.92
258.477	13.96
258.695	26.35
258.912	30.88
259.129	38.49
259.346	36.54
259.564	27.05
259.781	18.31
259.998	40.69
260.216	39.58
260.433	45.24
260.65	53.75
260.867	54.23
261.084	26.64
261.302	31.25
261.519	21.44
261.736	11.32
261.953	19.84
262.17	28.08
262.387	20.25
262.604	36.16
262.822	46.86
263.039	34.76
263.256	26.2
263.473	27.59
263.69	11.47
263.907	1.57
264.124	-10.2
264.341	-0.89
264.558	-3.31
264.775	3.95
264.992	-12.25
265.209	19.66
265.426	49.3
265.643	50.71
265.86	43.52
266.077	56.05
266.294	45.39
266.51	26.93
266.727	31.15
266.944	23.37
267.161	33.67
267.378	29.07
267.595	27.9
267.812	23.08
268.028	35.62
268.245	30.49
268.462	27.95
268.679	18.59
268.896	23.45
269.112	27.84
269.329	21.13
269.546	29.96
269.763	43.97
269.979	35.69
270.196	44.89
270.413	42.8
270.629	40.8
270.846	35.59
271.063	37.38
271.279	25.24
271.496	20.59
271.712	23.88
271.929	20.87
272.146	30.49
272.362	29.33
272.579	34.37
272.795	32.92
273.012	45.32
273.228	38.4
273.445	34.67
273.661	41.48
273.878	37.74
274.094	22.37
274.311	8.1
274.527	13.18
274.744	-6.2
274.96	1.8
275.177	6.6
275.393	18.83
275.609	10.43
275.826	21.85
276.042	13.09
276.259	5.51
276.475	6.6
276.691	12.34
276.908	14.69
277.124	43.87
277.34	51.62
277.557	48.21
277.773	52.36
277.989	50.51
278.205	36.16
278.422	34.17
278.638	40.84
278.854	37.43
279.07	29.15
279.286	33.44
279.503	36.61
279.719	36.93
279.935	33.41
280.151	40.82
280.367	44.62
280.583	47.75
280.799	54.3
281.016	65.55
281.232	67.41
281.448	65.68
281.664	72.11
281.88	56.39
282.096	45.65
282.312	45.59
282.528	38.25
282.744	38.06
282.96	49.47
283.176	49.85
283.392	37.03
283.608	38.38
283.824	31.3
284.04	18.59
284.256	16.79
284.471	13.96
284.687	14.28
284.903	18.76
285.119	19.76
285.335	33.39
285.551	36.49
285.767	30.11
285.982	26.7
286.198	31.27
286.414	21.62
286.63	38.11
286.846	27.62
287.061	34.92
287.277	31.85
287.493	34.43
287.709	40.44
287.924	56.69
288.14	51.38
288.356	42.73
288.571	42.54
288.787	28.99
289.003	30.69
289.218	21.55
289.434	21.84
289.65	10
289.865	3.39
290.081	1.32
290.296	9.08
290.512	-4.76
290.727	-1.63
290.943	12.83
291.159	8.42
291.374	12.79
291.59	13.63
291.805	14.8
292.021	3.78
292.236	11.89
292.451	13.26
292.667	30.38
292.882	41.22
293.098	44.12
293.313	49.63
293.529	38.87
293.744	30.28
293.959	35.18
294.175	36.9
294.39	23.38
294.605	34
294.821	37.32
295.036	26.66
295.251	39.31
295.467	44.19
295.682	28.99
295.897	30.93
296.112	27.06
296.328	15.84
296.543	4.51
296.758	18.29
296.973	12.47
297.188	11.57
297.404	11.7
297.619	18.95
297.834	16.45
298.049	16.97
298.264	19.27
298.479	21.68
298.694	21.79
298.909	27.35
299.125	32.45
299.34	21.17
299.555	20.94
299.77	22.61
299.985	21.22
300.2	14.84
300.415	20.75
300.63	22.43
300.845	26.14
301.06	28.25
301.275	28.82
301.49	24.92
301.704	28.64
301.919	24.19
302.134	26.4
302.349	31.11
302.564	43.22
302.779	38.66
302.994	33.73
303.209	39.63
303.423	47.31
303.638	35.83
303.853	41.76
304.068	45.93
304.283	44.86
304.497	36.81
304.712	46.54
304.927	48.44
305.142	46.78
305.356	34.56
305.571	39.41
305.786	30.79
306	27.55
306.215	25.1
306.43	40.12
306.644	36.15
306.859	49.69
307.074	42.95
307.288	41.41
307.503	36.89
307.717	35.26
307.932	13.84
308.147	18.87
308.361	39.46
308.576	38.53
308.79	37.07
309.005	43.38
309.219	39.18
309.434	24.92
309.648	23.39
309.863	15.33
310.077	14.43
310.292	20.98
310.506	13.69
310.72	23.84
310.935	22.14
311.149	36.32
311.364	31.49
311.578	50.81
311.792	37.03
312.007	46.1
312.221	45.69
312.435	47.58
312.649	38.48
312.864	57.47
313.078	62.91
313.292	57.32
313.507	62.89
313.721	70.51
313.935	34.1
314.149	22.64
314.363	21.63
314.578	19
314.792	10.1
315.006	23.81
315.22	17.76
315.434	19.2
315.648	12.29
315.862	15.96
316.077	8.25
316.291	15.59
316.505	20.26
316.719	31.23
316.933	42.21
317.147	32.13
317.361	29.2
317.575	17.73
317.789	14.94
318.003	-0.67
318.217	16.04
318.431	27.96
318.645	34.85
318.859	33.77
319.073	41.94
319.287	36.47
319.5	20.84
319.714	29.93
319.928	36.8
320.142	34.31
320.356	33.34
320.57	40.9
320.784	31.35
320.997	33.42
321.211	35.91
321.425	42.3
321.639	33.13
321.853	38.7
322.066	17.34
322.28	11.22
322.494	19.59
322.707	26.69
322.921	20.1
323.135	23.85
323.349	24.17
323.562	20.5
323.776	25.91
323.989	34.7
324.203	38.51
324.417	46.4
324.63	52.53
324.844	41.59
325.057	35.34
325.271	35.69
325.485	30.02
325.698	15.92
325.912	24.61
326.125	27.45
326.339	34.34
326.552	33.56
326.766	32.37
326.979	32.37
327.193	27.43
327.406	16.05
327.619	14.5
327.833	32.06
328.046	19.95
328.26	21.55
328.473	30.17
328.686	31.27
328.9	22.65
329.113	20.96
329.326	19.24
329.54	13.02
329.753	22.33
329.966	22.72
330.179	39.34
330.393	47.47
330.606	47.5
330.819	43.37
331.032	44.76
331.246	36.96
331.459	38.52
331.672	39.84
331.885	31.36
332.098	33.39
332.311	32.7
332.525	15.88
332.738	18.53
332.951	38.74
333.164	30.21
333.377	25.09
333.59	38.44
333.803	45.82
334.016	31.21
334.229	43.21
334.442	42.4
334.655	27.17
334.868	20.48
335.081	19.76
335.294	18.62
335.507	26.87
335.72	36.32
335.933	37.78
336.146	45.6
336.359	43.99
336.572	38.67
336.785	32.16
336.997	16.69
337.21	6.83
337.423	1.75
337.636	-16.15
337.849	-9.7
338.062	4.5
338.274	22.51
338.487	26.04
338.7	33.02
338.913	35.43
339.125	38.02
339.338	34.05
339.551	36.52
339.763	35.8
339.976	47.2
340.189	38.08
340.402	26.6
340.614	30.46
340.827	32.2
341.039	24.03
341.252	33.46
341.465	28.05
341.677	12.99
341.89	15.94
342.102	16.45
342.315	15.77
342.527	28.34
342.74	30.67
342.952	31.5
343.165	28
343.377	20.13
343.59	12.77
343.802	16.76
344.015	20.77
344.227	24.84
344.44	37.92
344.652	41.18
344.864	37.77
345.077	29.64
345.289	35.66
345.502	30.64
345.714	18.15
345.926	13.71
346.139	22.36
346.351	13.65
346.563	10.07
346.775	30.67
346.988	35.26
347.2	32.92
347.412	31.9
347.624	42
347.837	33.38
348.049	30.54
348.261	30.78
348.473	37.6
348.685	32.64
348.897	32.05
349.11	29.51
349.322	26.32
349.534	19.77
349.746	17.64
349.958	18.53
350.17	27.12
350.382	24.71
350.594	19.83
350.806	23.38
351.018	31.67
351.23	30.37
351.442	31.53
351.654	36.78
351.866	37.99
352.078	35.12
352.29	30.61
352.502	40.82
352.714	36.5
352.926	31.55
353.138	29.57
353.35	31.87
353.561	19.75
353.773	23.44
353.985	26.39
354.197	25.39
354.409	22.14
354.621	33.3
354.832	31.76
355.044	26.82
355.256	27.44
355.468	21
355.679	15.76
355.891	22.8
356.103	34.2
356.314	26.44
356.526	41.3
356.738	43.98
356.949	37.53
357.161	35.54
357.373	41.52
357.584	35.21
357.796	35.93
358.008	31.24
358.219	28.04
358.431	26.15
358.642	30.91
358.854	22.68
359.065	30.95
359.277	23.45
359.488	26.54
359.7	29.7
359.911	28.59
360.123	29.61
360.334	35.28
360.546	36.43
360.757	28.74
360.969	35.92
361.18	37.46
361.391	39.24
361.603	35.81
361.814	31.21
362.025	26.18
362.237	21.53
362.448	21.16
362.659	20.72
362.871	24.17
363.082	26.63
363.293	33.25
363.504	26.52
363.716	19.89
363.927	8.61
364.138	5.7
364.349	8.05
364.56	8.77
364.772	8.9
364.983	19.62
365.194	18.99
365.405	17.66
365.616	18.41
365.827	18.96
366.038	19.85
366.25	19.08
366.461	18.42
366.672	34.55
366.883	31.22
367.094	33.48
367.305	34.26
367.516	30.29
367.727	18.29
367.938	30.25
368.149	23.55
368.36	23.38
368.571	27.5
368.781	27.77
368.992	13.16
369.203	8.52
369.414	-10.6
369.625	-19.33
369.836	-10.69
370.047	2.31
370.258	12.65
370.468	28.32
370.679	35.91
370.89	30.69
371.101	29.95
371.312	24.48
371.522	31.37
371.733	34.56
371.944	29.64
372.155	36.54
372.365	42.5
372.576	33.51
372.787	24.42
372.997	28.28
373.208	19.85
373.419	21.2
373.629	19.95
373.84	25.63
374.05	23.98
374.261	20.97
374.472	14.42
374.682	20.82
374.893	19.75
375.103	19.05
375.314	22.4
375.524	27.88
375.735	21.36
375.945	24.37
376.156	25.73
376.366	20.95
376.577	10
376.787	19.46
376.997	9.29
377.208	10.41
377.418	16.35
377.629	24.92
377.839	26.99
378.049	38.57
378.26	34.95
378.47	22.57
378.68	29.1
378.89	15.14
379.101	6.46
379.311	17.49
379.521	29.27
379.732	21.05
379.942	17.71
380.152	14.45
380.362	4.15
380.572	-1.84
380.783	8.42
380.993	19.46
381.203	31.6
381.413	36.24
381.623	33.1
381.833	31.94
382.043	26.29
382.253	14.86
382.463	14.1
382.674	19.06
382.884	15.87
383.094	22.41
383.304	27.9
383.514	25.23
383.724	25.53
383.934	20.91
384.144	18.15
384.353	10.16
384.563	8.57
384.773	7.82
384.983	16.54
385.193	15.21
385.403	18.2
385.613	22.28
385.823	18.35
386.033	11.04
386.242	14.82
386.452	16.73
386.662	13.82
386.872	18.99
387.082	19.35
387.291	14.34
387.501	15.15
387.711	14.9
387.921	13.52
388.13	17.09
388.34	19.83
388.55	18.27
388.759	18.7
388.969	13.85
389.179	12.64
389.388	12.62
389.598	10.27
389.807	8.21
390.017	10.58
390.227	9.38
390.436	5.06
390.646	6.63
390.855	6.84
391.065	6.72
391.274	5.32
391.484	7.51
391.693	8.53
391.903	8.95
392.112	8.69
392.322	8.4
392.531	9.6
392.74	9.14
392.95	8.73
393.159	9.53
393.369	9.47
393.578	7.75
393.787	6.06
393.997	6.19
394.206	5.09
394.415	7.28
394.625	7.49
394.834	7.93
395.043	7.24
395.252	7.47
395.462	5.54
395.671	4
395.88	3.02
396.089	2.3
396.298	1.76
396.508	2.73
396.717	3.39
396.926	3.55
397.135	3.26
397.344	3.62
397.553	3.73
397.762	4.32
397.971	4.44
398.181	4.8
398.39	3.95
398.599	2.91
398.808	2.27
399.017	2.81
399.226	3.02
399.435	3.31
399.644	3.63
399.853	3.89
400.062	3.59
400.27	3.56
400.479	3.51
400.688	3.83
400.897	3.85
401.106	3.66
401.315	3.72
401.524	3.77
401.733	3.57
401.941	3.62
402.15	3.61
402.359	3.6
402.568	3.74
402.777	3.48
402.985	3.45
403.194	3.45
403.403	3.4
403.612	3.32
403.82	3.21
404.029	3.01
404.238	3.21
404.446	3.17
404.655	3.03
404.864	2.95
405.072	2.8
405.281	2.83
405.489	2.88
405.698	2.94
405.906	3.06
406.115	3.37
406.324	3.16
406.532	3.04
406.741	2.99
406.949	3.02
407.158	2.85
407.366	2.78
407.574	2.88
407.783	2.91
407.991	2.9
408.2	3.14
408.408	3.24
408.617	3.09
408.825	3.03
409.033	3.05
409.242	2.82
409.45	2.81
409.658	2.75
409.867	2.73
410.075	2.68
410.283	2.61
410.491	2.54
410.7	2.57
410.908	2.67
411.116	2.53
411.324	2.7
411.533	2.69
411.741	2.83
411.949	2.88
412.157	3.02
412.365	2.95
412.573	3.05
412.781	2.94
412.99	2.81
413.198	2.84
413.406	2.73
413.614	2.49
413.822	2.42
414.03	2.44
414.238	2.32
414.446	2.33
414.654	2.39
414.862	2.5
415.07	2.46
415.278	2.43
415.486	2.34
415.694	2.37
415.902	2.28
416.109	2.37
416.317	2.45
416.525	2.43
416.733	2.39
416.941	2.36
417.149	2.35
417.357	2.4
417.564	2.48
417.772	2.62
417.98	2.6
418.188	2.49
418.395	2.44
418.603	2.41
418.811	2.38
419.019	2.55
419.226	2.6
419.434	2.55
419.642	2.57
419.849	2.47
420.057	2.34
420.265	2.31
420.472	2.29
420.68	2.29
420.887	2.23
421.095	2.28
421.302	2.26
421.51	2.3
421.717	2.3
421.925	2.27
422.132	2.21
422.34	2.29
422.547	2.37
422.755	2.42
422.962	2.54
423.17	2.57
423.377	2.38
423.585	2.27
423.792	2.17
423.999	2.09
424.207	2.06
424.414	2.29
424.621	2.26
424.829	2.35
425.036	2.26
425.243	2.29
425.451	2.3
425.658	2.43
425.865	2.47
426.072	2.53
426.28	2.58
426.487	2.48
426.694	2.37
426.901	2.14
427.108	2.13
427.315	1.98
427.523	1.96
427.73	2.12
427.937	2.37
428.144	2.4
428.351	2.46
428.558	2.42
428.765	2.34
428.972	2.26
429.179	2.21
429.386	2.46
429.593	2.57
429.8	2.48
430.007	2.48
430.214	2.65
430.421	2.51
430.628	2.33
430.835	2.29
431.042	2.41
431.249	2.33
431.456	2.17
431.662	2.29
431.869	2.52
432.076	2.45
432.283	2.32
432.49	2.5
432.697	2.43
432.903	2.26
433.11	2.13
433.317	2.29
433.524	2.23
433.73	2.27
433.937	2.36
434.144	2.5
434.35	2.43
434.557	2.39
434.764	2.48
434.97	2.53
435.177	2.52
435.384	2.46
435.59	2.59
435.797	2.6
436.003	2.48
436.21	2.54
436.416	2.7
436.623	2.64
436.829	2.64
437.036	2.66
437.242	2.57
437.449	2.6
437.655	2.62
437.862	2.62
438.068	2.67
438.275	2.68
438.481	2.69
438.687	2.64
438.894	2.66
439.1	2.68
439.307	2.73
439.513	2.69
439.719	2.73
439.926	2.67
440.132	2.72
440.338	2.75
440.544	2.76
440.751	2.78
440.957	2.9
441.163	2.92
441.369	3.01
441.575	3.01
441.782	3.12
441.988	3.04
442.194	2.93
442.4	2.89
442.606	2.91
442.812	2.87
443.018	2.85
443.224	2.93
443.431	2.95
443.637	2.89
443.843	2.84
444.049	2.94
444.255	2.91
444.461	2.92
444.667	2.96
444.873	3.03
445.079	3.1
445.284	3.15
445.49	3.14
445.696	3.14
445.902	3.1
446.108	3.03
446.314	2.95
446.52	3.02
446.726	3.04
446.931	3.17
447.137	3.19
447.343	3.35
447.549	3.26
447.755	3.31
447.96	3.19
448.166	3.2
448.372	3.07
448.578	3.14
448.783	3.11
448.989	3.13
449.195	3.05
449.4	3.08
449.606	3
449.812	3.02
450.017	3.08
450.223	3.15
450.428	3.24
450.634	3.31
450.84	3.32
451.045	3.38
451.251	3.39
451.456	3.34
451.662	3.37
451.867	3.33
452.073	3.27
452.278	3.34
452.483	3.41
452.689	3.4
452.894	3.33
453.1	3.31
453.305	3.23
453.51	3.11
453.716	3.07
453.921	3.16
454.127	3.17
454.332	3.2
454.537	3.23
454.742	3.23
454.948	3.26
455.153	3.29
455.358	3.3
455.563	3.31
455.769	3.41
455.974	3.44
456.179	3.41
456.384	3.35
456.589	3.38
456.795	3.26
457	3.24
457.205	3.3
457.41	3.31
457.615	3.33
457.82	3.38
458.025	3.4
458.23	3.32
458.435	3.39
458.64	3.37
458.845	3.41
459.05	3.33
459.255	3.45
459.46	3.42
459.665	3.45
459.87	3.52
460.075	3.58
460.28	3.39
460.485	3.36
460.69	3.46
460.895	3.38
461.099	3.37
461.304	3.57
461.509	3.67
461.714	3.61
461.919	3.66
462.123	3.69
462.328	3.7
462.533	3.67
462.738	3.7
462.942	3.64
463.147	3.72
463.352	3.61
463.556	3.65
463.761	3.55
463.966	3.62
464.17	3.59
464.375	3.69
464.58	3.71
464.784	3.74
464.989	3.7
465.193	3.64
465.398	3.61
465.602	3.6
465.807	3.67
466.011	3.75
466.216	3.83
466.42	3.77
466.625	3.79
466.829	3.78
467.034	3.76
467.238	3.77
467.443	3.78
467.647	3.84
467.851	3.96
468.056	3.97
468.26	3.99
468.464	4.13
468.669	4.09
