Data from Ofra_PS_Phys_2GT38_Reflection_1.txt Node
Date: Tue Jul 20 17:49:59 EDT 2021
User: USUARIO
Spectrometer: FLMT01687
Trigger mode: 0
Integration Time (sec): 1.042999E0
Scans to average: 2
Electric dark correction enabled: true
Nonlinearity correction enabled: false
Boxcar width: 2
XAxis mode: Wavelengths
Number of Pixels in Spectrum: 3648
>>>>>Begin Spectral Data<<<<<
179.494	40.32
179.716	19.08
179.937	73.76
180.158	-15.22
180.38	-41.84
180.601	83.5
180.823	-40
181.044	431.96
181.265	625.58
181.486	67.47
181.708	70.14
181.929	108.62
182.15	20.33
182.372	550.7
182.593	100.83
182.814	88.45
183.035	69.3
183.257	78.92
183.478	63.13
183.699	51.03
183.92	48.46
184.141	42.14
184.363	32.98
184.584	24.41
184.805	34.54
185.026	38.05
185.247	64.33
185.468	52.72
185.689	44.2
185.91	41.08
186.132	43.82
186.353	8.27
186.574	49.63
186.795	79.78
187.016	64.88
187.237	47.69
187.458	52.87
187.679	-3.16
187.9	24.96
188.121	64.57
188.342	-101.9
188.563	-32.9
188.784	25.95
189.005	29.49
189.226	10.17
189.447	36.19
189.667	39.78
189.888	37.3
190.109	51.2
190.33	65.35
190.551	98.45
190.772	74.27
190.993	52.14
191.214	36.52
191.434	31.47
191.655	6.47
191.876	8.48
192.097	27.23
192.318	40.11
192.538	26.55
192.759	87.29
192.98	99.19
193.201	106.87
193.421	67.74
193.642	91.44
193.863	41.33
194.083	28.1
194.304	8.84
194.525	11.45
194.745	25.77
194.966	40.24
195.187	31.32
195.407	41.41
195.628	50.39
195.848	33.05
196.069	43.81
196.29	44.82
196.51	31.38
196.731	13.05
196.951	45.35
197.172	26.82
197.392	44.13
197.613	45.27
197.833	57.65
198.054	23.58
198.274	30.41
198.495	25.49
198.715	43.47
198.936	32.43
199.156	34.73
199.377	40.36
199.597	62.19
199.817	60.55
200.038	81.01
200.258	55.93
200.479	70.7
200.699	57.7
200.919	17.44
201.14	14.71
201.36	27.15
201.58	-36.09
201.801	-55.81
202.021	-30.91
202.241	-47.76
202.461	-134.86
202.682	16.21
202.902	35.38
203.122	6.86
203.342	44.53
203.563	25.3
203.783	-0.51
204.003	-0.92
204.223	-9.16
204.443	-79.66
204.663	-21.72
204.884	4.35
205.104	19.64
205.324	24.49
205.544	26.26
205.764	29.82
205.984	2.07
206.204	-2.6
206.424	-5.88
206.644	-22.93
206.864	-27.88
207.084	18.08
207.304	52.47
207.525	60.25
207.745	60.76
207.964	50.76
208.184	34.44
208.404	-2.99
208.624	-2.6
208.844	5.87
209.064	18.58
209.284	21.33
209.504	44.45
209.724	60.79
209.944	65.23
210.164	61.31
210.384	79.53
210.604	47.03
210.823	31.63
211.043	14.23
211.263	19.89
211.483	5.59
211.703	27.58
211.922	28.79
212.142	34.21
212.362	30.9
212.582	36.41
212.801	25.75
213.021	41.8
213.241	20.33
213.461	46.03
213.68	34.98
213.9	43.98
214.12	44.72
214.339	35.38
214.559	16.86
214.779	59.88
214.998	46.36
215.218	37.36
215.438	65.53
215.657	61.15
215.877	36.65
216.096	45.38
216.316	45.78
216.535	50.68
216.755	55.69
216.974	56.59
217.194	42.96
217.413	42.14
217.633	22.42
217.852	34.51
218.072	47.82
218.291	55.85
218.511	63.01
218.73	60.27
218.95	39.53
219.169	28.88
219.389	34.59
219.608	6.52
219.827	33.59
220.047	39.35
220.266	40.69
220.485	17.21
220.705	35.7
220.924	26.21
221.143	22.92
221.363	17.57
221.582	36.28
221.801	12.46
222.021	11.8
222.24	20.44
222.459	25.06
222.678	23.21
222.897	67.42
223.117	73.83
223.336	76.31
223.555	58.08
223.774	58.18
223.993	42.99
224.213	6.74
224.432	-8.94
224.651	-4.57
224.87	-8.67
225.089	-4.72
225.308	15.77
225.527	39.32
225.746	40.2
225.965	42.47
226.184	52.36
226.404	56.19
226.623	24.23
226.842	30.54
227.061	47.33
227.28	27.52
227.499	16.92
227.718	29.59
227.936	16.88
228.155	12.59
228.374	27.13
228.593	39.82
228.812	53.91
229.031	54.23
229.25	54.3
229.469	56.73
229.688	47.38
229.907	43.03
230.125	55.28
230.344	57.34
230.563	48.46
230.782	47.3
231.001	44.78
231.22	43.02
231.438	35.03
231.657	32.27
231.876	54.34
232.095	48.36
232.313	45.21
232.532	45.96
232.751	57.97
232.969	27.77
233.188	39.97
233.407	36.75
233.625	57.66
233.844	58.73
234.063	74.33
234.281	78.59
234.5	87.43
234.719	64.67
234.937	41.88
235.156	26.42
235.374	11.63
235.593	-2.16
235.811	-34.66
236.03	-32.05
236.249	-25.44
236.467	-7.9
236.686	1.69
236.904	19.55
237.123	40.01
237.341	49.92
237.559	47.54
237.778	42.55
237.996	37.86
238.215	38.42
238.433	28.59
238.652	23.76
238.87	22.65
239.088	19.07
239.307	17.03
239.525	1.44
239.743	4.8
239.962	-3.23
240.18	-3.08
240.398	-3.94
240.617	29.36
240.835	12.56
241.053	30.23
241.271	39.98
241.49	50.2
241.708	31.86
241.926	54.86
242.144	58.2
242.363	56.11
242.581	31.07
242.799	26.76
243.017	27
243.235	22.44
243.453	20.15
243.672	26.37
243.89	7.36
244.108	-1.24
244.326	-4.2
244.544	-13.55
244.762	-33.68
244.98	0.77
245.198	-5.43
245.416	9.59
245.634	29.02
245.852	58.46
246.07	75.99
246.288	90.93
246.506	89.96
246.724	95.75
246.942	80.42
247.16	57.87
247.378	60.48
247.596	53.09
247.814	42.98
248.032	10.44
248.25	23.38
248.468	8.73
248.685	38.41
248.903	48.27
249.121	59.54
249.339	53.1
249.557	62.38
249.775	63.88
249.992	70.88
250.21	53.14
250.428	53.16
250.646	24.86
250.863	11.84
251.081	-22.42
251.299	-27.87
251.517	-8.78
251.734	-37.15
251.952	-129.37
252.17	-68.5
252.387	-13.26
252.605	-23.94
252.823	14.39
253.04	43.32
253.258	43.85
253.475	49.92
253.693	75.85
253.911	87.59
254.128	90.33
254.346	75.74
254.563	72.19
254.781	39.5
254.998	25.52
255.216	34.93
255.433	24.94
255.651	32.25
255.868	53.84
256.086	50.24
256.303	34.14
256.521	29.83
256.738	18.99
256.956	0.46
257.173	-11.45
257.39	-17.02
257.608	-21.41
257.825	41.25
258.043	57.65
258.26	50.47
258.477	71.02
258.695	62.61
258.912	32.96
259.129	39.89
259.346	33.17
259.564	25.13
259.781	29.22
259.998	37.63
260.216	47.44
260.433	57.52
260.65	57.01
260.867	66.36
261.084	69.45
261.302	48.05
261.519	27.19
261.736	13.96
261.953	14.69
262.17	-1.14
262.387	1.72
262.604	19.9
262.822	-33.38
263.039	-52.4
263.256	-58.6
263.473	-58.48
263.69	-25.83
263.907	16.31
264.124	-7.09
264.341	20.6
264.558	28.8
264.775	26.63
264.992	-6.27
265.209	16.44
265.426	-9.63
265.643	-20.61
265.86	-19.23
266.077	-15.99
266.294	8.65
266.51	15.62
266.727	32.35
266.944	30.28
267.161	36.88
267.378	24.19
267.595	29.58
267.812	32.24
268.028	40.84
268.245	37.47
268.462	30.21
268.679	11.89
268.896	10.73
269.112	-1.16
269.329	18.11
269.546	0.11
269.763	18.51
269.979	36.92
270.196	47.35
270.413	50.16
270.629	38.72
270.846	40.85
271.063	30.5
271.279	22.82
271.496	-5.14
271.712	16.35
271.929	19.67
272.146	19.82
272.362	29.6
272.579	48.94
272.795	32.31
273.012	32.85
273.228	15.77
273.445	12.23
273.661	5.82
273.878	-8.5
274.094	-4.73
274.311	19.36
274.527	29.44
274.744	15.98
274.96	27.23
275.177	22.2
275.393	9.96
275.609	12.4
275.826	45.38
276.042	51.48
276.259	51.45
276.475	66.07
276.691	59.68
276.908	26.68
277.124	39.74
277.34	17.52
277.557	17.75
277.773	10.98
277.989	28.5
278.205	-4.7
278.422	28.9
278.638	20.12
278.854	29.56
279.07	24.67
279.286	27.23
279.503	16.43
279.719	23.69
279.935	8.6
280.151	22.36
280.367	36.46
280.583	28.81
280.799	28.39
281.016	30.41
281.232	24.77
281.448	2.59
281.664	17.05
281.88	7.4
282.096	14.28
282.312	28.33
282.528	38.04
282.744	31.44
282.96	33.71
283.176	23.31
283.392	15.07
283.608	14.81
283.824	24.58
284.04	31.12
284.256	39.88
284.471	31.19
284.687	45.25
284.903	41.97
285.119	22.76
285.335	-14.29
285.551	10.97
285.767	-18.36
285.982	-16.82
286.198	6.67
286.414	32.19
286.63	43.25
286.846	31.99
287.061	28.19
287.277	34.67
287.493	30.07
287.709	34.26
287.924	52.61
288.14	55.8
288.356	39.79
288.571	56.04
288.787	34.22
289.003	25.97
289.218	31.26
289.434	38.79
289.65	20.21
289.865	28.52
290.081	35.83
290.296	34.85
290.512	38.46
290.727	46.45
290.943	27.32
291.159	36.74
291.374	11.44
291.59	9.71
291.805	-4.55
292.021	17.79
292.236	15.36
292.451	41.7
292.667	42.18
292.882	26.02
293.098	24.67
293.313	17.92
293.529	30.42
293.744	17.76
293.959	30.65
294.175	23.82
294.39	33.92
294.605	27.59
294.821	13.24
295.036	33.83
295.251	43.02
295.467	38.57
295.682	21.32
295.897	27.14
296.112	14.64
296.328	8.38
296.543	1.69
296.758	20.31
296.973	25.46
297.188	27.54
297.404	25.65
297.619	33.55
297.834	-32.09
298.049	-25.11
298.264	-12.96
298.479	-10.47
298.694	-8.9
298.909	-15.74
299.125	-4.65
299.34	-31.09
299.555	3.99
299.77	-20.45
299.985	33.38
300.2	18.34
300.415	43.12
300.63	18.67
300.845	35.44
301.06	36.82
301.275	21.63
301.49	14.88
301.704	28.69
301.919	20.88
302.134	-7.21
302.349	15.91
302.564	14.11
302.779	7.87
302.994	15.9
303.209	36.02
303.423	35.41
303.638	25.06
303.853	23.7
304.068	25.07
304.283	9.46
304.497	18.05
304.712	25.16
304.927	21.69
305.142	14.89
305.356	14.08
305.571	6.99
305.786	3.83
306	7.47
306.215	23.04
306.43	30.82
306.644	39.18
306.859	52.57
307.074	53.22
307.288	41.72
307.503	36.1
307.717	28.43
307.932	10.94
308.147	17.85
308.361	16.4
308.576	13.21
308.79	19.21
309.005	18.81
309.219	3.58
309.434	6.83
309.648	9.09
309.863	2.57
310.077	33.79
310.292	52.82
310.506	45.52
310.72	50.53
310.935	57.78
311.149	37.28
311.364	30.29
311.578	49.41
311.792	49.1
312.007	56.74
312.221	50.36
312.435	54.77
312.649	41.56
312.864	34.56
313.078	12.17
313.292	36.57
313.507	29.46
313.721	28.43
313.935	43.76
314.149	51.4
314.363	34.34
314.578	43.2
314.792	30.67
315.006	6.13
315.22	9.8
315.434	-2.15
315.648	-32.15
315.862	-43.6
316.077	-52.75
316.291	-58.13
316.505	-36.23
316.719	-13.04
316.933	13.48
317.147	14.66
317.361	27.81
317.575	40.09
317.789	51.5
318.003	33.4
318.217	43.74
318.431	46.07
318.645	41.69
318.859	38.83
319.073	59.67
319.287	29.12
319.5	25.97
319.714	10.01
319.928	11.3
320.142	-4.39
320.356	24.23
320.57	13.55
320.784	26.01
320.997	29.32
321.211	27.62
321.425	26.81
321.639	44.22
321.853	64.08
322.066	48.16
322.28	47.55
322.494	50.89
322.707	46.39
322.921	30.4
323.135	30.75
323.349	31.4
323.562	15.79
323.776	16.6
323.989	22.65
324.203	18.78
324.417	0.73
324.63	10.97
324.844	5.31
325.057	11.36
325.271	23.7
325.485	35.59
325.698	12.23
325.912	38.2
326.125	36.16
326.339	22.04
326.552	32.14
326.766	39.34
326.979	30.82
327.193	35.09
327.406	29.83
327.619	41.13
327.833	43.28
328.046	22.34
328.26	2.97
328.473	22
328.686	13.19
328.9	20.86
329.113	39.53
329.326	36.5
329.54	37
329.753	19.92
329.966	-6.74
330.179	15.64
330.393	27.47
330.606	18.29
330.819	19.38
331.032	45.43
331.246	38.07
331.459	19.83
331.672	28.44
331.885	26.59
332.098	32.32
332.311	20.39
332.525	31.47
332.738	1.48
332.951	36.08
333.164	24.82
333.377	29.81
333.59	42.48
333.803	56.63
334.016	52.45
334.229	50.15
334.442	31.95
334.655	18.25
334.868	33.84
335.081	35.16
335.294	32.72
335.507	44.68
335.72	46.4
335.933	1.99
336.146	-6.17
336.359	18.44
336.572	21.78
336.785	22.54
336.997	47.6
337.21	66.78
337.423	42.76
337.636	34.04
337.849	42.74
338.062	30.6
338.274	22.41
338.487	37.76
338.7	31.54
338.913	16.82
339.125	30.32
339.338	26.69
339.551	10.13
339.763	16.62
339.976	19.94
340.189	22.95
340.402	22
340.614	13.13
340.827	23.59
341.039	26.61
341.252	24.32
341.465	12.11
341.677	32.98
341.89	7.16
342.102	22.11
342.315	16.44
342.527	12.55
342.74	29.81
342.952	33.98
343.165	33.82
343.377	39.95
343.59	43.5
343.802	41.94
344.015	53.06
344.227	34.35
344.44	27.64
344.652	35.49
344.864	25.11
345.077	28.94
345.289	47.04
345.502	37.86
345.714	25.08
345.926	19.92
346.139	11.86
346.351	7.98
346.563	36.16
346.775	54.28
346.988	45.72
347.2	27.26
347.412	19.03
347.624	22.01
347.837	13.94
348.049	20.12
348.261	20.39
348.473	26.77
348.685	30.69
348.897	30.38
349.11	31.11
349.322	34.3
349.534	37.44
349.746	33.95
349.958	30.27
350.17	39.44
350.382	45.57
350.594	39.73
350.806	39.75
351.018	52.81
351.23	28.9
351.442	24.37
351.654	26.55
351.866	13.74
352.078	-2.51
352.29	2.33
352.502	2.05
352.714	-1.01
352.926	-2.54
353.138	8.99
353.35	12.59
353.561	4.64
353.773	4.21
353.985	18.95
354.197	27.34
354.409	33.77
354.621	37.62
354.832	34.76
355.044	18.53
355.256	18.09
355.468	11.28
355.679	3.26
355.891	11.46
356.103	31.44
356.314	34.73
356.526	39.6
356.738	47.9
356.949	41.07
357.161	53.7
357.373	51.27
357.584	44.06
357.796	24.66
358.008	27.65
358.219	7.3
358.431	5.26
358.642	8.08
358.854	20.23
359.065	15.79
359.277	10.53
359.488	21.04
359.7	17.67
359.911	9.27
360.123	11.67
360.334	23.35
360.546	18.05
360.757	15.7
360.969	17.6
361.18	25.72
361.391	23.88
361.603	24.53
361.814	34.2
362.025	32.29
362.237	24.77
362.448	12.25
362.659	0.38
362.871	-2.01
363.082	6.1
363.293	17.69
363.504	23.23
363.716	35.59
363.927	19.73
364.138	19.42
364.349	0.07
364.56	-1.34
364.772	5.86
364.983	21.25
365.194	18.74
365.405	8.32
365.616	25.61
365.827	22.85
366.038	25.38
366.25	33.63
366.461	61.72
366.672	45.23
366.883	32.26
367.094	15.67
367.305	10.82
367.516	0.04
367.727	-0.73
367.938	2.23
368.149	15.79
368.36	18.63
368.571	25.86
368.781	38.19
368.992	34.41
369.203	33.13
369.414	25.37
369.625	36.38
369.836	24.99
370.047	29.12
370.258	24.58
370.468	26.47
370.679	17.8
370.89	11.58
371.101	14.98
371.312	19.02
371.522	19
371.733	19.66
371.944	24.86
372.155	27.49
372.365	24.15
372.576	30.59
372.787	30.2
372.997	34.27
373.208	32.76
373.419	37.29
373.629	20.74
373.84	27.48
374.05	21.8
374.261	23.7
374.472	16.36
374.682	35.35
374.893	28.59
375.103	26.89
375.314	16.81
375.524	13.27
375.735	13.25
375.945	14.45
376.156	15.56
376.366	13.18
376.577	24.4
376.787	19.87
376.997	12.01
377.208	16.36
377.418	27.07
377.629	33.78
377.839	24.67
378.049	28.11
378.26	34.68
378.47	29.27
378.68	22.46
378.89	25.83
379.101	33.35
379.311	33.91
379.521	30.91
379.732	45.25
379.942	52.78
380.152	50.2
380.362	39.25
380.572	49.2
380.783	37.91
380.993	38.32
381.203	34.76
381.413	28.59
381.623	26.23
381.833	20.95
382.043	5.29
382.253	0.73
382.463	9.27
382.674	3.46
382.884	-3.23
383.094	11.69
383.304	13.94
383.514	9.49
383.724	1.24
383.934	8.71
384.144	-0.07
384.353	4.53
384.563	4.53
384.773	12.72
384.983	17.31
385.193	31.11
385.403	32.56
385.613	38.39
385.823	39.02
386.033	24.67
386.242	17.51
386.452	10.89
386.662	11.22
386.872	8.47
387.082	15.89
387.291	10.59
387.501	13.64
387.711	8.22
387.921	10.66
388.13	11.22
388.34	13.16
388.55	13.19
388.759	11.89
388.969	11.05
389.179	7.07
389.388	7.35
389.598	3.3
389.807	5.24
390.017	4.19
390.227	6.27
390.436	4.54
390.646	2.93
390.855	5.53
391.065	6.88
391.274	9.14
391.484	9.44
391.693	12.54
391.903	12.36
392.112	10.42
392.322	6.31
392.531	4.52
392.74	3.11
392.95	1.54
393.159	3.41
393.369	5.1
393.578	6.49
393.787	5.99
393.997	6.08
394.206	4.86
394.415	5.7
394.625	6.17
394.834	6.63
395.043	6.73
395.252	7.73
395.462	8.48
395.671	7.61
395.88	7.71
396.089	7.48
396.298	6.72
396.508	4.75
396.717	5.76
396.926	5.34
397.135	4.85
397.344	4.66
397.553	5.02
397.762	4.33
397.971	4.42
398.181	4.53
398.39	4.96
398.599	4.72
398.808	4.9
399.017	5.33
399.226	5.43
399.435	5.29
399.644	5.05
399.853	5.1
400.062	4.7
400.27	4.76
400.479	4.82
400.688	5.22
400.897	5.32
401.106	5.43
401.315	5.41
401.524	5.21
401.733	5.56
401.941	5.4
402.15	5.46
402.359	5.28
402.568	5.17
402.777	5.16
402.985	4.99
403.194	4.62
403.403	4.75
403.612	4.59
403.82	4.05
404.029	4.3
404.238	4.5
404.446	4.32
404.655	4.67
404.864	4.86
405.072	4.55
405.281	4.56
405.489	4.63
405.698	4.46
405.906	4.4
406.115	4.47
406.324	4.34
406.532	4.23
406.741	4.16
406.949	4.1
407.158	4.05
407.366	4.07
407.574	3.91
407.783	3.91
407.991	3.92
408.2	3.97
408.408	3.97
408.617	4.19
408.825	4.15
409.033	4.18
409.242	4.24
409.45	4.25
409.658	4.25
409.867	4.32
410.075	4.23
410.283	4.07
410.491	3.96
410.7	3.82
410.908	3.76
411.116	3.8
411.324	3.85
411.533	3.87
411.741	3.97
411.949	4
412.157	4.08
412.365	4.16
412.573	4.2
412.781	4.23
412.99	4.15
413.198	4.14
413.406	4.09
413.614	4.15
413.822	4.07
414.03	4.11
414.238	3.92
414.446	3.83
414.654	3.74
414.862	3.7
415.07	3.56
415.278	3.67
415.486	3.69
415.694	3.65
415.902	3.64
416.109	3.66
416.317	3.74
416.525	3.58
416.733	3.55
416.941	3.61
417.149	3.61
417.357	3.58
417.564	3.77
417.772	3.84
417.98	3.84
418.188	3.9
418.395	3.79
418.603	3.72
418.811	3.8
419.019	3.64
419.226	3.63
419.434	3.65
419.642	3.71
419.849	3.55
420.057	3.61
420.265	3.64
420.472	3.57
420.68	3.51
420.887	3.59
421.095	3.64
421.302	3.6
421.51	3.58
421.717	3.53
421.925	3.49
422.132	3.45
422.34	3.49
422.547	3.39
422.755	3.46
422.962	3.3
423.17	3.22
423.377	3.23
423.585	3.31
423.792	3.25
423.999	3.37
424.207	3.48
424.414	3.34
424.621	3.3
424.829	3.32
425.036	3.3
425.243	3.19
425.451	3.32
425.658	3.23
425.865	3.33
426.072	3.19
426.28	3.22
426.487	3.06
426.694	3.25
426.901	3.16
427.108	3.45
427.315	3.46
427.523	3.55
427.73	3.57
427.937	3.44
428.144	3.25
428.351	3.21
428.558	3.2
428.765	2.92
428.972	3.01
429.179	2.97
429.386	3.05
429.593	2.92
429.8	3.03
430.007	3.08
430.214	3.29
430.421	3.2
430.628	3.38
430.835	3.6
431.042	3.5
431.249	3.47
431.456	3.53
431.662	3.45
431.869	3.17
432.076	3.33
432.283	3.18
432.49	3.22
432.697	3.19
432.903	3.28
433.11	3.22
433.317	3.27
433.524	3.33
433.73	3.31
433.937	3.41
434.144	3.33
434.35	3.3
434.557	3.07
434.764	3.24
434.97	3.09
435.177	3.24
435.384	3.14
435.59	3.42
435.797	3.41
436.003	3.49
436.21	3.48
436.416	3.6
436.623	3.43
436.829	3.44
437.036	3.44
437.242	3.39
437.449	3.31
437.655	3.36
437.862	3.3
438.068	3.23
438.275	3.25
438.481	3.33
438.687	3.35
438.894	3.42
439.1	3.72
439.307	3.74
439.513	3.76
439.719	3.77
439.926	3.69
440.132	3.61
440.338	3.64
440.544	3.63
440.751	3.61
440.957	3.62
441.163	3.59
441.369	3.64
441.575	3.66
441.782	3.72
441.988	3.73
442.194	3.69
442.4	3.55
442.606	3.51
442.812	3.42
443.018	3.48
443.224	3.46
443.431	3.6
443.637	3.73
443.843	3.84
444.049	3.82
444.255	3.8
444.461	3.79
444.667	3.67
444.873	3.63
445.079	3.63
445.284	3.63
445.49	3.55
445.696	3.55
445.902	3.59
446.108	3.56
446.314	3.57
446.52	3.66
446.726	3.83
446.931	3.84
447.137	3.84
447.343	3.8
447.549	3.79
447.755	3.68
447.96	3.65
448.166	3.74
448.372	3.92
448.578	3.97
448.783	4.06
448.989	4.07
449.195	4.08
449.4	3.95
449.606	3.86
449.812	3.77
450.017	3.84
450.223	3.8
450.428	3.82
450.634	3.87
450.84	3.93
451.045	3.96
451.251	3.96
451.456	4.02
451.662	4.12
451.867	4.14
452.073	4.07
452.278	4.01
452.483	4.08
452.689	3.9
452.894	3.8
453.1	3.81
453.305	3.94
453.51	3.76
453.716	3.81
453.921	3.77
454.127	3.74
454.332	3.65
454.537	3.71
454.742	3.73
454.948	3.84
455.153	3.91
455.358	3.92
455.563	4
455.769	3.98
455.974	3.97
456.179	3.85
456.384	3.8
456.589	3.75
456.795	3.73
457	3.69
457.205	3.6
457.41	3.67
457.615	3.77
457.82	3.85
458.025	3.86
458.23	3.93
458.435	3.96
458.64	3.87
458.845	3.84
459.05	3.78
459.255	3.85
459.46	3.83
459.665	3.77
459.87	3.73
460.075	3.79
460.28	3.78
460.485	3.8
460.69	3.81
460.895	3.87
461.099	3.87
461.304	3.86
461.509	3.85
461.714	3.93
461.919	3.96
462.123	3.97
462.328	3.98
462.533	4.07
462.738	4.07
462.942	3.99
463.147	4.08
463.352	4.08
463.556	4.07
463.761	4.03
463.966	4.07
464.17	4.14
464.375	4.27
464.58	4.22
464.784	4.27
464.989	4.31
465.193	4.26
465.398	4.25
465.602	4.29
465.807	4.17
466.011	4.12
466.216	4.09
466.42	4.15
466.625	4.19
466.829	4.29
467.034	4.35
467.238	4.42
467.443	4.36
467.647	4.24
467.851	4.16
468.056	4.13
468.26	4.16
