Data from Ofav_PP_Phys_313_Reflection_2.txt Node
Date: Tue Jul 27 19:06:19 EDT 2021
User: USUARIO
Spectrometer: FLMT01687
Trigger mode: 0
Integration Time (sec): 8.500000E-1
Scans to average: 2
Electric dark correction enabled: true
Nonlinearity correction enabled: false
Boxcar width: 2
XAxis mode: Wavelengths
Number of Pixels in Spectrum: 3648
>>>>>Begin Spectral Data<<<<<
179.494	-1474.07
179.716	-488.17
179.937	-321.85
180.158	-274.65
180.38	-236.5
180.601	-162.51
180.823	-12.59
181.044	27.04
181.265	20.01
181.486	13.44
181.708	-5.66
181.929	3.54
182.15	12.04
182.372	-12.78
182.593	5.83
182.814	67.56
183.035	65.52
183.257	58.83
183.478	58.82
183.699	50.3
183.92	44.93
184.141	55.83
184.363	69.14
184.584	76.55
184.805	108.98
185.026	97.71
185.247	109.89
185.468	94.66
185.689	75.63
185.91	35.55
186.132	22.9
186.353	10.95
186.574	17.79
186.795	28.71
187.016	39.52
187.237	40.47
187.458	67
187.679	67.39
187.9	59.14
188.121	86.48
188.342	104.22
188.563	97.85
188.784	97.92
189.005	96.27
189.226	72.04
189.447	61.8
189.667	73.31
189.888	59.44
190.109	53.92
190.33	57.32
190.551	68.59
190.772	53.8
190.993	48.26
191.214	49.49
191.434	48.61
191.655	55.38
191.876	47.33
192.097	41.21
192.318	46.35
192.538	48.24
192.759	45.91
192.98	45.22
193.201	52.45
193.421	50.63
193.642	37.94
193.863	25.17
194.083	39.17
194.304	27.2
194.525	8.97
194.745	1.31
194.966	-15.29
195.187	-40.19
195.407	26.65
195.628	91.22
195.848	86.3
196.069	127.88
196.29	171.84
196.51	127.26
196.731	91.53
196.951	97.5
197.172	104.49
197.392	97.93
197.613	103.96
197.833	99.43
198.054	102.7
198.274	62.17
198.495	69.41
198.715	106.57
198.936	99.06
199.156	92.08
199.377	148.45
199.597	205.1
199.817	87.58
200.038	111.28
200.258	97.37
200.479	50.57
200.699	38.2
200.919	57.63
201.14	59.94
201.36	62.3
201.58	83.72
201.801	93.65
202.021	68.08
202.241	58.76
202.461	49.11
202.682	7.5
202.902	-5.93
203.122	17.77
203.342	35.43
203.563	45.15
203.783	61.84
204.003	55.49
204.223	42.69
204.443	34.18
204.663	15.36
204.884	1.76
205.104	1.71
205.324	26.67
205.544	32.33
205.764	38.44
205.984	30.83
206.204	55.83
206.424	44.3
206.644	43.53
206.864	37.7
207.084	39.43
207.304	38.59
207.525	33.29
207.745	34.28
207.964	49.94
208.184	63.05
208.404	58.02
208.624	64.84
208.844	62.51
209.064	60.49
209.284	50.51
209.504	51.52
209.724	25.97
209.944	11.78
210.164	-28.31
210.384	-43.61
210.604	-61.85
210.823	33.83
211.043	51.54
211.263	57.37
211.483	80.34
211.703	95.2
211.922	97.48
212.142	124.67
212.362	110.55
212.582	86.73
212.801	83.4
213.021	93.92
213.241	65.01
213.461	77.17
213.68	101.75
213.9	97.95
214.12	84.89
214.339	101.03
214.559	79.37
214.779	52.83
214.998	57.08
215.218	37.96
215.438	23.4
215.657	24.83
215.877	24.48
216.096	24.05
216.316	47.19
216.535	44.21
216.755	44.72
216.974	73.72
217.194	72.46
217.413	55.31
217.633	54.95
217.852	45.87
218.072	25.21
218.291	26.26
218.511	31.75
218.73	39.15
218.95	38.96
219.169	56
219.389	52.6
219.608	65.87
219.827	97.89
220.047	137.92
220.266	88.05
220.485	78.74
220.705	78.59
220.924	72.28
221.143	56.68
221.363	40.45
221.582	33.49
221.801	14.36
222.021	29
222.24	40.87
222.459	52.55
222.678	80.99
222.897	84.18
223.117	86.25
223.336	72.45
223.555	44.1
223.774	31.49
223.993	42.69
224.213	20.4
224.432	43.5
224.651	58.71
224.87	54.84
225.089	41.32
225.308	39.99
225.527	36.01
225.746	16.38
225.965	14.43
226.184	18.76
226.404	25.81
226.623	19.37
226.842	37.22
227.061	34.33
227.28	27.88
227.499	49.21
227.718	43.81
227.936	46.1
228.155	43.47
228.374	60.71
228.593	35.7
228.812	56.93
229.031	47.08
229.25	69.32
229.469	53.13
229.688	72.31
229.907	46.21
230.125	63.8
230.344	60.19
230.563	65.79
230.782	73.95
231.001	62.67
231.22	66.43
231.438	42.77
231.657	34.41
231.876	28.17
232.095	33.35
232.313	28.66
232.532	47.58
232.751	53.75
232.969	57.95
233.188	69.64
233.407	52.8
233.625	53.31
233.844	43.33
234.063	38.86
234.281	43.4
234.5	34.46
234.719	47.06
234.937	45.05
235.156	39.4
235.374	24.27
235.593	44.78
235.811	16.6
236.03	22.28
236.249	19.66
236.467	43.44
236.686	40.36
236.904	51.68
237.123	45.7
237.341	43.28
237.559	28.17
237.778	36.31
237.996	38.49
238.215	38.31
238.433	45.9
238.652	40.98
238.87	30.13
239.088	28.92
239.307	34.52
239.525	21.41
239.743	17.39
239.962	21.8
240.18	21.91
240.398	20
240.617	35.01
240.835	54.39
241.053	58.82
241.271	57.72
241.49	88.1
241.708	100.37
241.926	108.89
242.144	99.9
242.363	115.08
242.581	107.03
242.799	68.65
243.017	41.27
243.235	81.57
243.453	83.5
243.672	65.74
243.89	76.82
244.108	91.96
244.326	66.93
244.544	50.27
244.762	35.65
244.98	53.16
245.198	39.99
245.416	47.05
245.634	51.95
245.852	97.21
246.07	84.66
246.288	81.67
246.506	90.45
246.724	90.84
246.942	68.28
247.16	59.19
247.378	55.18
247.596	57.26
247.814	51.87
248.032	50.33
248.25	62.04
248.468	69.91
248.685	56.65
248.903	71.22
249.121	71.96
249.339	62
249.557	64.6
249.775	28.86
249.992	1.46
250.21	-0.65
250.428	1.51
250.646	-25.65
250.863	7.37
251.081	42.06
251.299	55.14
251.517	34.81
251.734	75.2
251.952	83.76
252.17	77.01
252.387	45.88
252.605	65.87
252.823	51.4
253.04	48.23
253.258	53
253.475	53.99
253.693	70.79
253.911	90.61
254.128	87.07
254.346	74.56
254.563	89.82
254.781	78.01
254.998	67.04
255.216	47.66
255.433	48.21
255.651	51.64
255.868	49.57
256.086	27.34
256.303	29.6
256.521	30.54
256.738	14.96
256.956	0.54
257.173	19.38
257.39	31.99
257.608	38.92
257.825	45.86
258.043	49.74
258.26	54.72
258.477	53.49
258.695	53.4
258.912	66.72
259.129	80.01
259.346	72.15
259.564	66.17
259.781	89.95
259.998	59.73
260.216	62.09
260.433	54.07
260.65	62.42
260.867	42.51
261.084	42.98
261.302	24.11
261.519	21.65
261.736	13.68
261.953	31.56
262.17	28.46
262.387	36.4
262.604	47.77
262.822	48.76
263.039	41.04
263.256	50.12
263.473	55.32
263.69	53.31
263.907	50.77
264.124	59.59
264.341	56.44
264.558	50.84
264.775	44.39
264.992	53.03
265.209	44.22
265.426	51.13
265.643	51.45
265.86	48.17
266.077	31.31
266.294	43.71
266.51	47.85
266.727	48.17
266.944	51.92
267.161	59.63
267.378	39.66
267.595	30.69
267.812	30.53
268.028	48.51
268.245	64.03
268.462	72.13
268.679	66.04
268.896	48.31
269.112	21.74
269.329	21.94
269.546	29.08
269.763	20.14
269.979	24.08
270.196	40.52
270.413	43.67
270.629	51.69
270.846	80.27
271.063	77.94
271.279	80.01
271.496	78.4
271.712	62.79
271.929	39.17
272.146	34.76
272.362	44.29
272.579	43.41
272.795	56.16
273.012	49.1
273.228	47
273.445	53.06
273.661	62.94
273.878	51.59
274.094	51.15
274.311	66.57
274.527	55.06
274.744	41.35
274.96	53.01
275.177	46.73
275.393	28.19
275.609	36.06
275.826	49.28
276.042	27.41
276.259	54.26
276.475	55.72
276.691	50.34
276.908	49.89
277.124	61.98
277.34	56.92
277.557	57.37
277.773	55.74
277.989	51.28
278.205	47.96
278.422	54.36
278.638	50.25
278.854	64.46
279.07	63.55
279.286	58.89
279.503	54.92
279.719	64.79
279.935	61.89
280.151	53.37
280.367	60.29
280.583	62.15
280.799	63.59
281.016	53.73
281.232	73.15
281.448	68.9
281.664	54.53
281.88	35.77
282.096	42.99
282.312	26.91
282.528	21.43
282.744	25.44
282.96	51.53
283.176	67.55
283.392	80.32
283.608	102.47
283.824	77.54
284.04	42.19
284.256	36.69
284.471	19.34
284.687	9.77
284.903	-0.85
285.119	21.64
285.335	23.17
285.551	23.48
285.767	31.51
285.982	34.86
286.198	29
286.414	14.73
286.63	26.81
286.846	11.57
287.061	19.68
287.277	14.9
287.493	11.57
287.709	5.49
287.924	13.29
288.14	13.4
288.356	42.45
288.571	63.64
288.787	68.66
289.003	80.65
289.218	80.74
289.434	56.98
289.65	37.66
289.865	19.45
290.081	25.68
290.296	29.38
290.512	28.71
290.727	31.12
290.943	53.47
291.159	55.04
291.374	62.96
291.59	62.32
291.805	61.87
292.021	60.71
292.236	62.17
292.451	59.9
292.667	74.74
292.882	61.5
293.098	52.56
293.313	53.57
293.529	58.12
293.744	47.2
293.959	60.99
294.175	61.17
294.39	47.56
294.605	44.33
294.821	43.72
295.036	26.15
295.251	20.8
295.467	11.55
295.682	-8.42
295.897	5.58
296.112	19.08
296.328	29.13
296.543	40.9
296.758	44.38
296.973	42.74
297.188	52.7
297.404	38.15
297.619	45
297.834	45.95
298.049	39.38
298.264	31.14
298.479	44.3
298.694	36.69
298.909	25.63
299.125	20.61
299.34	11.61
299.555	12.05
299.77	14.42
299.985	20.13
300.2	27.56
300.415	34.95
300.63	38.21
300.845	54.44
301.06	58.64
301.275	42.06
301.49	34.2
301.704	14.39
301.919	6.73
302.134	5.6
302.349	12.62
302.564	16.54
302.779	17.49
302.994	12.05
303.209	22.18
303.423	31.7
303.638	30.7
303.853	29.46
304.068	47.65
304.283	49.89
304.497	44.09
304.712	44.16
304.927	51.54
305.142	47.67
305.356	35.63
305.571	54.94
305.786	60.17
306	58.32
306.215	46.57
306.43	47.52
306.644	54.79
306.859	54.85
307.074	74.38
307.288	82.61
307.503	87.35
307.717	77.66
307.932	77.71
308.147	74.74
308.361	65.41
308.576	45.93
308.79	40.15
309.005	25.7
309.219	-6.07
309.434	-12.18
309.648	-2.11
309.863	-12.42
310.077	-3.29
310.292	14.79
310.506	14.5
310.72	31.82
310.935	41.23
311.149	41.55
311.364	27
311.578	33.35
311.792	11.93
312.007	21.95
312.221	31.54
312.435	29.38
312.649	28.03
312.864	35.55
313.078	32.48
313.292	55.82
313.507	73.98
313.721	110.42
313.935	89.91
314.149	76.52
314.363	64.99
314.578	60.18
314.792	43.03
315.006	46.75
315.22	44.31
315.434	50.49
315.648	57.6
315.862	54.32
316.077	49.85
316.291	60.1
316.505	51.38
316.719	52.56
316.933	44.41
317.147	44.11
317.361	28.7
317.575	35.19
317.789	17.82
318.003	23
318.217	24.57
318.431	35.63
318.645	27.26
318.859	34.44
319.073	26.79
319.287	24.49
319.5	16.33
319.714	15.38
319.928	19.4
320.142	15.55
320.356	21.84
320.57	35.92
320.784	40.31
320.997	39.6
321.211	53.28
321.425	43.42
321.639	25.54
321.853	22.38
322.066	27.68
322.28	6.12
322.494	12.48
322.707	25.73
322.921	24.69
323.135	20.43
323.349	37.04
323.562	33.02
323.776	35.82
323.989	22.94
324.203	23.51
324.417	2.76
324.63	28.46
324.844	32.87
325.057	55.71
325.271	62.11
325.485	78.5
325.698	62.61
325.912	50.38
326.125	56.13
326.339	56.75
326.552	50.83
326.766	61.55
326.979	58.47
327.193	42.45
327.406	25.95
327.619	12.57
327.833	14.19
328.046	37.32
328.26	39.11
328.473	51.16
328.686	63.82
328.9	63.64
329.113	48.92
329.326	49.7
329.54	56.3
329.753	51.25
329.966	34.42
330.179	41.88
330.393	47.62
330.606	23.77
330.819	51.5
331.032	47.98
331.246	49.17
331.459	46.58
331.672	56.53
331.885	44.1
332.098	68.12
332.311	65.79
332.525	62.74
332.738	57.41
332.951	57.52
333.164	49.17
333.377	42.7
333.59	50.65
333.803	51.86
334.016	31.04
334.229	20
334.442	27.13
334.655	27.62
334.868	29.23
335.081	43.43
335.294	42.82
335.507	54.08
335.72	59.42
335.933	45.44
336.146	43.88
336.359	45.75
336.572	44.24
336.785	40.81
336.997	58.63
337.21	69.87
337.423	67.3
337.636	45.29
337.849	35.66
338.062	44.12
338.274	31.98
338.487	42.1
338.7	41.71
338.913	51.6
339.125	40.02
339.338	41.94
339.551	22.18
339.763	26.2
339.976	13.76
340.189	19.21
340.402	18.25
340.614	10.29
340.827	24.4
341.039	15
341.252	-1.08
341.465	-20.49
341.677	19.86
341.89	12.25
342.102	33.07
342.315	40.92
342.527	52.95
342.74	50.78
342.952	39.94
343.165	45.53
343.377	44.95
343.59	38.71
343.802	26.86
344.015	38.79
344.227	33.17
344.44	39.1
344.652	39.65
344.864	44.68
345.077	46.82
345.289	39.12
345.502	36.69
345.714	46.27
345.926	42.42
346.139	31.48
346.351	36.57
346.563	27.14
346.775	12.3
346.988	11.92
347.2	-1.83
347.412	-6.79
347.624	5.62
347.837	4.26
348.049	5.73
348.261	21.15
348.473	18.76
348.685	40.08
348.897	48.31
349.11	44.36
349.322	40.84
349.534	39.61
349.746	35.26
349.958	39.99
350.17	49.81
350.382	42.57
350.594	26.23
350.806	39.56
351.018	45.17
351.23	45.78
351.442	53.56
351.654	94.53
351.866	58.2
352.078	50.41
352.29	37.56
352.502	41.59
352.714	29.3
352.926	40.08
353.138	46.65
353.35	57.96
353.561	40.21
353.773	46.7
353.985	38.27
354.197	24.11
354.409	33.96
354.621	48.27
354.832	39.96
355.044	39.05
355.256	50.3
355.468	55.76
355.679	56.99
355.891	65.23
356.103	81.25
356.314	74.82
356.526	59.67
356.738	76.67
356.949	76.41
357.161	64.25
357.373	65.19
357.584	69.58
357.796	63.22
358.008	56.86
358.219	53.7
358.431	52.57
358.642	40.3
358.854	37.44
359.065	33.72
359.277	48.45
359.488	55.7
359.7	57.33
359.911	53.46
360.123	61.66
360.334	41.42
360.546	29.48
360.757	33.35
360.969	25.24
361.18	19.13
361.391	28.05
361.603	25.52
361.814	32.15
362.025	46.49
362.237	47.32
362.448	35.77
362.659	35.92
362.871	38.98
363.082	33.96
363.293	30.14
363.504	44.42
363.716	44.97
363.927	35.07
364.138	20.93
364.349	25.56
364.56	23.38
364.772	18.54
364.983	24.68
365.194	40.79
365.405	44.93
365.616	34.19
365.827	40.92
366.038	49.96
366.25	45.29
366.461	42.93
366.672	57.51
366.883	38.72
367.094	36.65
367.305	37.87
367.516	28.41
367.727	25.25
367.938	30.85
368.149	40.44
368.36	37.89
368.571	41.86
368.781	41.93
368.992	41.32
369.203	14.39
369.414	18.56
369.625	20.4
369.836	13.17
370.047	13.15
370.258	24.32
370.468	23.3
370.679	11.05
370.89	15.36
371.101	27.72
371.312	38.71
371.522	28.61
371.733	41.05
371.944	49.68
372.155	38.03
372.365	18.47
372.576	24.29
372.787	28.15
372.997	27.34
373.208	29.94
373.419	37.74
373.629	41.28
373.84	33.78
374.05	31.92
374.261	18.45
374.472	31.39
374.682	29.97
374.893	38.7
375.103	30.95
375.314	47.09
375.524	30.59
375.735	28.14
375.945	18.85
376.156	32.12
376.366	28.36
376.577	29.36
376.787	37.29
376.997	36.14
377.208	32.64
377.418	42.17
377.629	47.59
377.839	41.48
378.049	43.06
378.26	32.34
378.47	22.66
378.68	29.77
378.89	31.88
379.101	33.34
379.311	40.74
379.521	42.82
379.732	37.53
379.942	40.58
380.152	42.84
380.362	50.45
380.572	46.97
380.783	42.95
380.993	28.14
381.203	24.47
381.413	10.07
381.623	18.12
381.833	15.77
382.043	27.53
382.253	29.5
382.463	30.66
382.674	35.36
382.884	31.36
383.094	21.48
383.304	33.52
383.514	36.87
383.724	22.62
383.934	26.56
384.144	27.82
384.353	16.94
384.563	22.87
384.773	29.84
384.983	23.03
385.193	21.43
385.403	19.22
385.613	15.62
385.823	12.37
386.033	16.2
386.242	18.96
386.452	19.23
386.662	23.42
386.872	23.09
387.082	21.37
387.291	15.39
387.501	14.87
387.711	8.35
387.921	9.17
388.13	9.76
388.34	13.15
388.55	14.22
388.759	12.93
388.969	12.41
389.179	16.37
389.388	17.38
389.598	19.01
389.807	18.99
390.017	18.73
390.227	18.72
390.436	19.62
390.646	16.59
390.855	15.43
391.065	12.48
391.274	8.83
391.484	5.38
391.693	6.81
391.903	8.1
392.112	9.37
392.322	9.86
392.531	9.23
392.74	6.68
392.95	6.3
393.159	5.33
393.369	5.64
393.578	7.06
393.787	7.5
393.997	7.68
394.206	10.25
394.415	10.13
394.625	9.54
394.834	9.24
395.043	8.92
395.252	7.33
395.462	8.22
395.671	7.51
395.88	8.42
396.089	8.19
396.298	7.97
396.508	7.08
396.717	7.43
396.926	6.17
397.135	5.65
397.344	5.63
397.553	6.24
397.762	5.92
397.971	6.52
398.181	6.61
398.39	6.27
398.599	6.18
398.808	6.61
399.017	6.72
399.226	7.16
399.435	7.87
399.644	7.51
399.853	7.35
400.062	7.45
400.27	7.18
400.479	6.41
400.688	6.65
400.897	6.63
401.106	6.87
401.315	7.4
401.524	7.8
401.733	7.4
401.941	7.18
402.15	6.65
402.359	6.15
402.568	5.97
402.777	5.96
402.985	5.86
403.194	6
403.403	6.13
403.612	5.99
403.82	6.01
404.029	6.34
404.238	6.25
404.446	6.4
404.655	6.45
404.864	6.5
405.072	6.4
405.281	6.34
405.489	6
405.698	6.09
405.906	6.15
406.115	5.93
406.324	5.93
406.532	5.91
406.741	5.85
406.949	5.82
407.158	5.96
407.366	5.85
407.574	5.99
407.783	5.95
407.991	5.86
408.2	5.94
408.408	6.08
408.617	5.99
408.825	6.02
409.033	5.98
409.242	5.82
409.45	5.65
409.658	5.65
409.867	5.49
410.075	5.46
410.283	5.56
410.491	5.59
410.7	5.63
410.908	5.66
411.116	5.7
411.324	5.55
411.533	5.59
411.741	5.32
411.949	5.43
412.157	5.47
412.365	5.61
412.573	5.56
412.781	5.64
412.99	5.63
413.198	5.69
413.406	5.69
413.614	5.8
413.822	5.85
414.03	5.83
414.238	5.58
414.446	5.47
414.654	5.48
414.862	5.5
415.07	5.31
415.278	5.51
415.486	5.44
415.694	5.15
415.902	5.11
416.109	5.25
416.317	5.21
416.525	5.23
416.733	5.38
416.941	5.61
417.149	5.35
417.357	5.26
417.564	5.18
417.772	5.17
417.98	4.99
418.188	5.31
418.395	5.27
418.603	5.35
418.811	5.43
419.019	5.28
419.226	5.22
419.434	5.45
419.642	5.52
419.849	5.48
420.057	5.56
420.265	5.61
420.472	5.43
420.68	5.24
420.887	5.25
421.095	5.25
421.302	5.11
421.51	5.02
421.717	5.02
421.925	4.98
422.132	5.05
422.34	5.05
422.547	5.18
422.755	5.35
422.962	5.26
423.17	5.23
423.377	5.28
423.585	5.33
423.792	5.26
423.999	5.19
424.207	5.15
424.414	5.18
424.621	5.01
424.829	4.95
425.036	5.01
425.243	4.93
425.451	4.75
425.658	4.69
425.865	4.74
426.072	4.7
426.28	4.75
426.487	4.87
426.694	4.8
426.901	4.83
427.108	4.89
427.315	4.85
427.523	4.66
427.73	4.67
427.937	4.48
428.144	4.39
428.351	4.31
428.558	4.51
428.765	4.69
428.972	4.91
429.179	4.95
429.386	5.17
429.593	5.11
429.8	5.03
430.007	4.89
430.214	4.94
430.421	4.96
430.628	4.97
430.835	5.04
431.042	4.99
431.249	5.01
431.456	4.98
431.662	5.01
431.869	5.14
432.076	5.15
432.283	4.99
432.49	4.88
432.697	4.85
432.903	4.8
433.11	5
433.317	5.03
433.524	5.02
433.73	4.99
433.937	4.77
434.144	4.65
434.35	4.7
434.557	4.74
434.764	4.71
434.97	4.71
435.177	4.81
435.384	4.69
435.59	4.74
435.797	4.75
436.003	4.85
436.21	4.61
436.416	4.81
436.623	4.73
436.829	4.61
437.036	4.61
437.242	4.78
437.449	4.6
437.655	4.62
437.862	4.73
438.068	4.62
438.275	4.67
438.481	4.77
438.687	4.81
438.894	4.84
439.1	4.81
439.307	4.62
439.513	4.63
439.719	4.74
439.926	4.68
440.132	4.87
440.338	4.89
440.544	4.78
440.751	4.62
440.957	4.65
441.163	4.48
441.369	4.51
441.575	4.55
441.782	4.65
441.988	4.62
442.194	4.78
442.4	4.85
442.606	4.8
442.812	4.8
443.018	4.79
443.224	4.67
443.431	4.57
443.637	4.75
443.843	4.55
444.049	4.58
444.255	4.5
444.461	4.57
444.667	4.42
444.873	4.44
445.079	4.5
445.284	4.46
445.49	4.45
445.696	4.49
445.902	4.54
446.108	4.51
446.314	4.58
446.52	4.67
446.726	4.68
446.931	4.76
447.137	4.71
447.343	4.67
447.549	4.57
447.755	4.53
447.96	4.48
448.166	4.51
448.372	4.61
448.578	4.62
448.783	4.7
448.989	4.75
449.195	4.72
449.4	4.75
449.606	4.76
449.812	4.68
450.017	4.6
450.223	4.62
450.428	4.5
450.634	4.48
450.84	4.45
451.045	4.52
451.251	4.56
451.456	4.63
451.662	4.65
451.867	4.82
452.073	4.7
452.278	4.61
452.483	4.53
452.689	4.59
452.894	4.55
453.1	4.61
453.305	4.64
453.51	4.72
453.716	4.63
453.921	4.59
454.127	4.56
454.332	4.52
454.537	4.52
454.742	4.49
454.948	4.43
455.153	4.5
455.358	4.62
455.563	4.58
455.769	4.61
455.974	4.62
456.179	4.56
456.384	4.41
456.589	4.51
456.795	4.39
457	4.36
457.205	4.31
457.41	4.34
457.615	4.29
457.82	4.35
458.025	4.35
458.23	4.46
458.435	4.52
458.64	4.39
458.845	4.44
459.05	4.46
459.255	4.48
459.46	4.44
459.665	4.53
459.87	4.46
460.075	4.6
460.28	4.59
460.485	4.57
460.69	4.56
460.895	4.6
461.099	4.51
461.304	4.5
461.509	4.57
461.714	4.62
461.919	4.69
462.123	4.71
462.328	4.71
462.533	4.63
462.738	4.63
462.942	4.56
463.147	4.5
463.352	4.43
463.556	4.58
463.761	4.5
463.966	4.43
464.17	4.52
464.375	4.59
464.58	4.48
464.784	4.62
464.989	4.84
465.193	4.82
465.398	4.85
465.602	4.86
465.807	4.68
466.011	4.61
466.216	4.56
466.42	4.61
466.625	4.6
466.829	4.67
467.034	4.71
467.238	4.72
467.443	4.69
467.647	4.65
467.851	4.75
