Data from Ofav_PP_Phys_9GT46_Reflection_3.txt Node
Date: Tue Jul 27 19:03:48 EDT 2021
User: USUARIO
Spectrometer: FLMT01687
Trigger mode: 0
Integration Time (sec): 8.500000E-1
Scans to average: 2
Electric dark correction enabled: true
Nonlinearity correction enabled: false
Boxcar width: 2
XAxis mode: Wavelengths
Number of Pixels in Spectrum: 3648
>>>>>Begin Spectral Data<<<<<
179.494	-399.26
179.716	-223.12
179.937	-136.98
180.158	-95.5
180.38	-112.29
180.601	-190.15
180.823	18.38
181.044	9.43
181.265	49.47
181.486	40.47
181.708	-39.27
181.929	114.93
182.15	55.51
182.372	34.02
182.593	-14.14
182.814	12.25
183.035	31.36
183.257	22.76
183.478	53.36
183.699	60.15
183.92	70.81
184.141	66.72
184.363	66.78
184.584	63.7
184.805	83.41
185.026	75.09
185.247	81.27
185.468	77.22
185.689	53.21
185.91	19.6
186.132	-7.63
186.353	7.15
186.574	15.51
186.795	27.23
187.016	26.7
187.237	41.6
187.458	23.13
187.679	21.93
187.9	8.42
188.121	11.32
188.342	21.55
188.563	40.04
188.784	59.47
189.005	67.78
189.226	75.77
189.447	57.78
189.667	44.71
189.888	35.85
190.109	24
190.33	7.39
190.551	14.66
190.772	13.95
190.993	10.23
191.214	21.44
191.434	16.08
191.655	33.48
191.876	42.18
192.097	29.06
192.318	33.82
192.538	51
192.759	47.52
192.98	49.03
193.201	57.05
193.421	65.41
193.642	46.87
193.863	39
194.083	50.54
194.304	39.13
194.525	27.08
194.745	10.13
194.966	-20.27
195.187	-69.43
195.407	-36.83
195.628	-24.22
195.848	30.25
196.069	45.43
196.29	99.59
196.51	140.03
196.731	116.46
196.951	97.08
197.172	87.93
197.392	65.91
197.613	34.79
197.833	32.55
198.054	27.42
198.274	42.77
198.495	53.58
198.715	80.61
198.936	71.41
199.156	84.16
199.377	85.69
199.597	55.39
199.817	29.13
200.038	-5.87
200.258	-18.18
200.479	-10.92
200.699	4.09
200.919	8.37
201.14	35.85
201.36	22.87
201.58	51.47
201.801	47.32
202.021	39.94
202.241	19.79
202.461	-3.13
202.682	-31.13
202.902	-32.84
203.122	-9.73
203.342	10.47
203.563	54.65
203.783	67.55
204.003	53.93
204.223	44.77
204.443	21.85
204.663	10.19
204.884	10.39
205.104	21.39
205.324	25.86
205.544	28.79
205.764	21.54
205.984	0.31
206.204	-25.94
206.424	-24.45
206.644	13.15
206.864	3.09
207.084	17.31
207.304	31.7
207.525	31.57
207.745	39.55
207.964	44.26
208.184	47.99
208.404	41.58
208.624	36.07
208.844	27.07
209.064	44.83
209.284	46.12
209.504	42.97
209.724	43.3
209.944	35.31
210.164	45.82
210.384	45.22
210.604	63.33
210.823	52.22
211.043	48.46
211.263	38.97
211.483	48.39
211.703	51.03
211.922	40.84
212.142	59.82
212.362	19.38
212.582	-11.18
212.801	9.96
213.021	26.07
213.241	3.52
213.461	4.54
213.68	5.19
213.9	-23.25
214.12	-17.84
214.339	9.75
214.559	22.52
214.779	28.79
214.998	28.24
215.218	10.8
215.438	1.36
215.657	20.2
215.877	23.6
216.096	30.96
216.316	52.99
216.535	57.97
216.755	58.97
216.974	67.09
217.194	65.78
217.413	54.95
217.633	53.5
217.852	46.53
218.072	35.75
218.291	38.36
218.511	47.74
218.73	50.43
218.95	38.89
219.169	43.27
219.389	28.35
219.608	24.07
219.827	16.35
220.047	26.55
220.266	41.06
220.485	46.03
220.705	37.61
220.924	44.24
221.143	46.52
221.363	31.84
221.582	25.43
221.801	35.37
222.021	41.69
222.24	36.41
222.459	33.39
222.678	52.83
222.897	46.71
223.117	35.61
223.336	31.18
223.555	36.05
223.774	22.88
223.993	12.38
224.213	-1.7
224.432	4.38
224.651	18.28
224.87	24.6
225.089	21.93
225.308	33.7
225.527	43.62
225.746	19.45
225.965	26.58
226.184	24.65
226.404	-3.79
226.623	-11.64
226.842	7.49
227.061	-8.71
227.28	1.11
227.499	28.48
227.718	32.16
227.936	25.44
228.155	33.68
228.374	39
228.593	52.25
228.812	39.36
229.031	32.48
229.25	29.41
229.469	10.19
229.688	-53.29
229.907	-48.29
230.125	1.53
230.344	0.09
230.563	14.91
230.782	30.2
231.001	36.29
231.22	37.46
231.438	38.07
231.657	40.88
231.876	46.71
232.095	41.66
232.313	54.42
232.532	59.81
232.751	64.51
232.969	56.63
233.188	70.94
233.407	41.89
233.625	36.14
233.844	15.13
234.063	35.28
234.281	39.73
234.5	44.71
234.719	60.01
234.937	63.73
235.156	24.94
235.374	10.43
235.593	21.66
235.811	16
236.03	25.84
236.249	52.64
236.467	70.2
236.686	57.29
236.904	50.99
237.123	47.5
237.341	45.06
237.559	46.76
237.778	42.73
237.996	43.52
238.215	37.64
238.433	40.02
238.652	21.36
238.87	34.52
239.088	19.07
239.307	34.1
239.525	19.24
239.743	31.29
239.962	10.81
240.18	14.48
240.398	5.84
240.617	14.67
240.835	31.1
241.053	39.83
241.271	50.28
241.49	54.77
241.708	58.38
241.926	40.07
242.144	16.93
242.363	-3.57
242.581	1.01
242.799	-4.03
243.017	-44.29
243.235	-26.28
243.453	11.39
243.672	18.03
243.89	19.99
244.108	35.74
244.326	31.98
244.544	20.25
244.762	18.08
244.98	18.98
245.198	20.38
245.416	24.7
245.634	40.87
245.852	39.76
246.07	46.33
246.288	60.38
246.506	56.76
246.724	47.47
246.942	46.69
247.16	41.11
247.378	32.67
247.596	31.71
247.814	34.15
248.032	15.07
248.25	2.92
248.468	9.81
248.685	-8.86
248.903	-3.08
249.121	17.38
249.339	25.51
249.557	21.74
249.775	24.48
249.992	13.12
250.21	2.57
250.428	6.39
250.646	-6.6
250.863	7.67
251.081	8.29
251.299	23.54
251.517	23.41
251.734	44.06
251.952	34.21
252.17	60.12
252.387	29.08
252.605	56.26
252.823	52.78
253.04	55.86
253.258	51.49
253.475	55.48
253.693	62.74
253.911	56.45
254.128	45.87
254.346	38.36
254.563	49.59
254.781	19.21
254.998	32.22
255.216	21.44
255.433	14.33
255.651	-2.18
255.868	-6.12
256.086	-20.77
256.303	0.88
256.521	25.32
256.738	36.83
256.956	34.64
257.173	37.42
257.39	34.4
257.608	28.58
257.825	31.99
258.043	50.03
258.26	63.57
258.477	57.65
258.695	49.91
258.912	42.48
259.129	42.96
259.346	20.86
259.564	49.09
259.781	64.24
259.998	62.3
260.216	46.66
260.433	45.75
260.65	41.96
260.867	32.1
261.084	38.21
261.302	17.52
261.519	13.33
261.736	15.45
261.953	20.61
262.17	11.48
262.387	22.36
262.604	34.08
262.822	28.28
263.039	26.37
263.256	42.02
263.473	43.96
263.69	37.28
263.907	16.61
264.124	-3.52
264.341	6.57
264.558	16.65
264.775	7.48
264.992	30.17
265.209	38.17
265.426	34.11
265.643	33.39
265.86	44.22
266.077	47.8
266.294	75.25
266.51	72.86
266.727	66.46
266.944	55.08
267.161	51.13
267.378	34.16
267.595	34.95
267.812	51
268.028	63.96
268.245	65.65
268.462	63.95
268.679	74.94
268.896	49.72
269.112	31.93
269.329	37.05
269.546	39.74
269.763	16.21
269.979	21.5
270.196	33
270.413	33
270.629	30.91
270.846	53.82
271.063	38.22
271.279	20.19
271.496	3.46
271.712	-19.46
271.929	-47.97
272.146	-28.08
272.362	14.31
272.579	20.87
272.795	47.56
273.012	47.89
273.228	39.53
273.445	36.54
273.661	35.42
273.878	21.57
274.094	10.4
274.311	10.9
274.527	2.3
274.744	5.95
274.96	-4.35
275.177	12.94
275.393	23.2
275.609	35.8
275.826	30.8
276.042	25.52
276.259	27.21
276.475	17.95
276.691	10.69
276.908	8.65
277.124	12.53
277.34	10.19
277.557	-2.54
277.773	3.28
277.989	13.77
278.205	14.93
278.422	16.39
278.638	18.71
278.854	23.71
279.07	31.92
279.286	43.04
279.503	33.64
279.719	41.34
279.935	54.41
280.151	49.2
280.367	45.65
280.583	54.56
280.799	57.37
281.016	46
281.232	52.54
281.448	54.89
281.664	37.2
281.88	22.73
282.096	26.25
282.312	4.33
282.528	14.55
282.744	28.43
282.96	32.94
283.176	44.53
283.392	59.75
283.608	67.89
283.824	44.37
284.04	13.72
284.256	9.41
284.471	5.9
284.687	-6.31
284.903	1.38
285.119	24.82
285.335	22.93
285.551	9.77
285.767	13.15
285.982	11.71
286.198	22.49
286.414	14.84
286.63	11.91
286.846	5.47
287.061	2.68
287.277	-1.7
287.493	-13.28
287.709	2.12
287.924	7.11
288.14	3.56
288.356	14.59
288.571	30.63
288.787	32.59
289.003	19.69
289.218	34.01
289.434	30.1
289.65	21.97
289.865	-6.35
290.081	8.33
290.296	0.48
290.512	-6.49
290.727	8.37
290.943	18.7
291.159	23.78
291.374	16.68
291.59	16.83
291.805	14.63
292.021	17.61
292.236	19.94
292.451	21.04
292.667	26.83
292.882	9.02
293.098	13.54
293.313	18.6
293.529	35.94
293.744	33.6
293.959	52.98
294.175	54.71
294.39	45.16
294.605	38.18
294.821	41.06
295.036	26.73
295.251	5.4
295.467	-1
295.682	-30.68
295.897	-5.52
296.112	10.74
296.328	12.17
296.543	32.54
296.758	38.94
296.973	25.42
297.188	26.29
297.404	25.76
297.619	24.35
297.834	16.34
298.049	20.36
298.264	24.01
298.479	43.63
298.694	42.96
298.909	50.6
299.125	51.94
299.34	44.88
299.555	42.11
299.77	39.24
299.985	40.62
300.2	35.66
300.415	30.79
300.63	19.66
300.845	28.36
301.06	25.67
301.275	35.43
301.49	30.73
301.704	22.01
301.919	23.03
302.134	32.05
302.349	35.2
302.564	33.66
302.779	28.05
302.994	17.67
303.209	9.05
303.423	2.23
303.638	-3.38
303.853	8.44
304.068	21.17
304.283	15.41
304.497	15.81
304.712	34.49
304.927	35.77
305.142	27.98
305.356	22.21
305.571	28.74
305.786	15.52
306	4.88
306.215	13.44
306.43	15.42
306.644	24.31
306.859	28.98
307.074	39.96
307.288	34.45
307.503	39.37
307.717	30.49
307.932	32.8
308.147	39.12
308.361	45.12
308.576	58.55
308.79	55.89
309.005	37.02
309.219	14.77
309.434	-0.26
309.648	-8.89
309.863	-15.03
310.077	-8.33
310.292	1.97
310.506	-0.4
310.72	3.06
310.935	7.77
311.149	9.93
311.364	13.21
311.578	24.81
311.792	6.06
312.007	16.09
312.221	20.39
312.435	21.15
312.649	24.78
312.864	-9.25
313.078	-26.97
313.292	-55.17
313.507	-46.89
313.721	-28.39
313.935	18.95
314.149	27.48
314.363	31.34
314.578	30.2
314.792	13.79
315.006	28.26
315.22	23.82
315.434	31.9
315.648	47.28
315.862	44.87
316.077	39.65
316.291	45.88
316.505	29.05
316.719	30.92
316.933	50.59
317.147	54.07
317.361	51.51
317.575	45.96
317.789	38.97
318.003	30.94
318.217	26.23
318.431	22.53
318.645	37.27
318.859	49.57
319.073	35.25
319.287	24.08
319.5	20.21
319.714	11.12
319.928	5.59
320.142	10.28
320.356	37.06
320.57	53.55
320.784	63.23
320.997	64.37
321.211	63.51
321.425	53.57
321.639	26.37
321.853	14.58
322.066	7.19
322.28	-6.35
322.494	-14.46
322.707	9.53
322.921	8.32
323.135	9.08
323.349	19.44
323.562	26.87
323.776	17.18
323.989	24.23
324.203	30.4
324.417	30.81
324.63	44.35
324.844	35.21
325.057	32.75
325.271	11.48
325.485	26.82
325.698	20.29
325.912	33.62
326.125	41.79
326.339	52.88
326.552	50.78
326.766	47.58
326.979	38.33
327.193	24.09
327.406	17.72
327.619	6.91
327.833	3.76
328.046	16.49
328.26	24.54
328.473	15.31
328.686	20.26
328.9	25.97
329.113	26.26
329.326	-0.61
329.54	6.23
329.753	-0.69
329.966	1.7
330.179	17.67
330.393	40.47
330.606	20.74
330.819	25.41
331.032	18.7
331.246	7.54
331.459	2.95
331.672	25.79
331.885	19.48
332.098	34.06
332.311	44.26
332.525	38.98
332.738	9.18
332.951	20.12
333.164	2.34
333.377	-12.86
333.59	9.77
333.803	32.21
334.016	23.25
334.229	27.73
334.442	38.08
334.655	38.77
334.868	32.99
335.081	32.54
335.294	39.91
335.507	28.77
335.72	19.89
335.933	22.56
336.146	37.32
336.359	37.61
336.572	46.87
336.785	41.69
336.997	64.53
337.21	61.35
337.423	38.04
337.636	26.41
337.849	32.81
338.062	23.39
338.274	31.39
338.487	50.84
338.7	47.28
338.913	61.13
339.125	65.48
339.338	46.76
339.551	30.3
339.763	23.33
339.976	-4.94
340.189	-5.14
340.402	-7.03
340.614	-2.83
340.827	-2.67
341.039	-11.37
341.252	-13.19
341.465	-14.4
341.677	-20.03
341.89	-14.98
342.102	11.94
342.315	19.99
342.527	29.26
342.74	36.14
342.952	32.08
343.165	40.93
343.377	31.92
343.59	26.4
343.802	19.77
344.015	31.29
344.227	28.18
344.44	11.33
344.652	13.89
344.864	12.84
345.077	10.22
345.289	-7.05
345.502	13.67
345.714	16.31
345.926	26.99
346.139	22.74
346.351	27.91
346.563	14.81
346.775	24.82
346.988	12.52
347.2	5.65
347.412	6.84
347.624	15.51
347.837	-25.3
348.049	-14.56
348.261	-2.51
348.473	-11.83
348.685	5.22
348.897	8.07
349.11	2.14
349.322	-15.56
349.534	3.36
349.746	2.33
349.958	0.21
350.17	13.59
350.382	29.76
350.594	17.03
350.806	21.86
351.018	40.79
351.23	30.21
351.442	24
351.654	49.53
351.866	31.33
352.078	32.73
352.29	32.03
352.502	20.03
352.714	14.78
352.926	20.25
353.138	30.62
353.35	21.12
353.561	25.53
353.773	10.42
353.985	5.4
354.197	-8.03
354.409	5.29
354.621	10.98
354.832	27.11
355.044	27.67
355.256	25.65
355.468	31.67
355.679	45.73
355.891	32.18
356.103	15.01
356.314	31.91
356.526	33.72
356.738	11.39
356.949	17.31
357.161	35.3
357.373	32.71
357.584	30.88
357.796	41.09
358.008	50.95
358.219	51.24
358.431	40.86
358.642	38.39
358.854	38.35
359.065	22.67
359.277	37.52
359.488	40.48
359.7	41.45
359.911	35.33
360.123	50.74
360.334	32.01
360.546	10.37
360.757	14.06
360.969	-3.64
361.18	-14.42
361.391	0.91
361.603	26.34
361.814	20.31
362.025	36.03
362.237	43.71
362.448	28.18
362.659	16.16
362.871	20.25
363.082	15.66
363.293	13.31
363.504	2.22
363.716	7.44
363.927	3.23
364.138	7.32
364.349	9.82
364.56	19.99
364.772	15.05
364.983	11.76
365.194	3.04
365.405	15.13
365.616	15.88
365.827	21.5
366.038	21.7
366.25	27.32
366.461	11.17
366.672	15.02
366.883	18.16
367.094	16.46
367.305	20.56
367.516	9.74
367.727	18.7
367.938	17.34
368.149	19.44
368.36	23.09
368.571	24.06
368.781	20.96
368.992	17.87
369.203	8.31
369.414	8.99
369.625	20.75
369.836	13.93
370.047	12.28
370.258	30.38
370.468	21.74
370.679	19.95
370.89	9.44
371.101	8.17
371.312	4.36
371.522	9.43
371.733	3.54
371.944	9.71
372.155	27.14
372.365	21.23
372.576	19.9
372.787	29.71
372.997	39.06
373.208	28.76
373.419	32.72
373.629	38.75
373.84	36.2
374.05	40.39
374.261	35.75
374.472	36.9
374.682	31.82
374.893	28.88
375.103	22.39
375.314	31.72
375.524	36
375.735	24.61
375.945	23.74
376.156	20.8
376.366	16.2
376.577	3.96
376.787	13.55
376.997	24.66
377.208	29.97
377.418	22.86
377.629	28.82
377.839	28.58
378.049	23.72
378.26	21.34
378.47	32.99
378.68	45.07
378.89	41.04
379.101	28.06
379.311	23.3
379.521	15.17
379.732	10.58
379.942	23.13
380.152	25.63
380.362	32.08
380.572	35.91
380.783	26.33
380.993	21.38
381.203	19.76
381.413	18.02
381.623	19.82
381.833	30.25
382.043	29.79
382.253	32.77
382.463	22
382.674	27.61
382.884	19.18
383.094	6.1
383.304	11.96
383.514	19.08
383.724	8.45
383.934	3.23
384.144	7.85
384.353	7.71
384.563	10.43
384.773	10.32
384.983	12.6
385.193	8.93
385.403	6.31
385.613	6.58
385.823	7.22
386.033	9.26
386.242	18.06
386.452	18.41
386.662	22.92
386.872	24.18
387.082	23.95
387.291	16.28
387.501	15.24
387.711	11.46
387.921	13.12
388.13	11.31
388.34	12.42
388.55	8.95
388.759	4.36
388.969	4.63
389.179	8.45
389.388	11.36
389.598	15.86
389.807	17.25
390.017	14.85
390.227	13.94
390.436	11.37
390.646	8.99
390.855	7.44
391.065	6.19
391.274	4.99
391.484	3.97
391.693	3.45
391.903	5.75
392.112	6.89
392.322	5.9
392.531	7.28
392.74	8.17
392.95	7.65
393.159	6.96
393.369	6.33
393.578	6.01
393.787	4.67
393.997	4.53
394.206	5.7
394.415	6.09
394.625	5.96
394.834	6.43
395.043	6.05
395.252	5.59
395.462	6.47
395.671	6.13
395.88	7.37
396.089	8.59
396.298	8.35
396.508	7.5
396.717	8.91
396.926	7.28
397.135	6.02
397.344	5.88
397.553	6.33
397.762	4.92
397.971	5.64
398.181	6
398.39	5.9
398.599	6.07
398.808	6.42
399.017	6.42
399.226	6.29
399.435	6.72
399.644	6.92
399.853	7.01
400.062	7.04
400.27	6.85
400.479	6.24
400.688	5.95
400.897	6.02
401.106	6.15
401.315	6.52
401.524	7
401.733	6.9
401.941	6.84
402.15	6.63
402.359	6.45
402.568	6.2
402.777	6.15
402.985	6.06
403.194	6.23
403.403	6.23
403.612	6.3
403.82	6.36
404.029	6.62
404.238	6.56
404.446	6.67
404.655	6.75
404.864	6.84
405.072	6.65
405.281	6.53
405.489	6.3
405.698	6.23
405.906	6.11
406.115	5.95
406.324	5.72
406.532	5.73
406.741	5.65
406.949	5.78
407.158	5.89
407.366	5.91
407.574	6.13
407.783	6.11
407.991	5.82
408.2	5.85
408.408	6.04
408.617	5.91
408.825	5.84
409.033	6
409.242	5.9
409.45	5.85
409.658	5.79
409.867	5.86
410.075	5.81
410.283	5.88
410.491	5.73
410.7	5.69
410.908	5.74
411.116	5.68
411.324	5.6
411.533	5.65
411.741	5.61
411.949	5.46
412.157	5.44
412.365	5.64
412.573	5.62
412.781	5.63
412.99	5.62
413.198	5.85
413.406	5.7
413.614	5.77
413.822	5.89
414.03	5.88
414.238	5.63
414.446	5.63
414.654	5.61
414.862	5.56
415.07	5.53
415.278	5.56
415.486	5.41
415.694	5.27
415.902	5.16
416.109	5.32
416.317	5.37
416.525	5.29
416.733	5.31
416.941	5.4
417.149	5.18
417.357	5.19
417.564	5.21
417.772	5.29
417.98	5.27
418.188	5.4
418.395	5.24
418.603	5.31
418.811	5.28
419.019	5.09
419.226	5.15
419.434	5.3
419.642	5.39
419.849	5.39
420.057	5.54
420.265	5.58
420.472	5.5
420.68	5.44
420.887	5.57
421.095	5.5
421.302	5.35
421.51	5.31
421.717	5.31
421.925	5.02
422.132	5.15
422.34	5.08
422.547	5.12
422.755	5.27
422.962	5.22
423.17	5.11
423.377	5.1
423.585	5.08
423.792	4.98
423.999	5.04
424.207	5.04
424.414	5.06
424.621	5.02
424.829	4.92
425.036	5.03
425.243	5.02
425.451	4.85
425.658	4.84
425.865	4.93
426.072	4.89
426.28	4.88
426.487	4.94
426.694	4.86
426.901	4.75
427.108	4.66
427.315	4.57
427.523	4.55
427.73	4.54
427.937	4.56
428.144	4.69
428.351	4.73
428.558	4.9
428.765	4.92
428.972	4.89
429.179	4.83
429.386	4.86
429.593	4.72
429.8	4.65
430.007	4.69
430.214	4.72
430.421	4.77
430.628	4.93
430.835	4.98
431.042	4.82
431.249	4.68
431.456	4.67
431.662	4.71
431.869	4.83
432.076	5.02
432.283	5.07
432.49	5.02
432.697	4.86
432.903	4.91
433.11	5.05
433.317	5.04
433.524	5.13
433.73	5.09
433.937	4.92
434.144	4.82
434.35	4.8
434.557	4.73
434.764	4.75
434.97	4.87
435.177	4.87
435.384	4.72
435.59	4.72
435.797	4.75
436.003	4.64
436.21	4.6
436.416	4.7
436.623	4.68
436.829	4.58
437.036	4.63
437.242	4.54
437.449	4.58
437.655	4.63
437.862	4.81
438.068	4.74
438.275	4.82
438.481	4.84
438.687	4.84
438.894	4.84
439.1	4.87
439.307	4.82
439.513	4.82
439.719	4.84
439.926	4.68
440.132	4.79
440.338	4.76
440.544	4.66
440.751	4.56
440.957	4.67
441.163	4.53
441.369	4.63
441.575	4.65
441.782	4.8
441.988	4.71
442.194	4.74
442.4	4.76
442.606	4.72
442.812	4.61
443.018	4.62
443.224	4.54
443.431	4.34
443.637	4.51
443.843	4.46
444.049	4.52
444.255	4.51
444.461	4.49
444.667	4.35
444.873	4.35
445.079	4.42
445.284	4.5
445.49	4.71
445.696	4.75
445.902	4.79
446.108	4.72
446.314	4.68
446.52	4.64
446.726	4.66
446.931	4.7
447.137	4.66
447.343	4.59
447.549	4.46
447.755	4.43
447.96	4.34
448.166	4.34
448.372	4.42
448.578	4.5
448.783	4.56
448.989	4.6
449.195	4.54
449.4	4.57
449.606	4.6
449.812	4.5
450.017	4.45
450.223	4.48
450.428	4.43
450.634	4.41
450.84	4.43
451.045	4.53
451.251	4.71
451.456	4.81
451.662	4.78
451.867	4.84
452.073	4.8
452.278	4.66
452.483	4.59
452.689	4.73
452.894	4.74
453.1	4.73
453.305	4.73
453.51	4.69
453.716	4.54
453.921	4.55
454.127	4.55
454.332	4.59
454.537	4.64
454.742	4.63
454.948	4.48
455.153	4.54
455.358	4.48
455.563	4.49
455.769	4.5
455.974	4.53
456.179	4.45
456.384	4.41
456.589	4.52
456.795	4.51
457	4.55
457.205	4.43
457.41	4.46
457.615	4.33
457.82	4.24
458.025	4.22
458.23	4.43
458.435	4.44
458.64	4.37
458.845	4.57
459.05	4.61
459.255	4.43
459.46	4.49
459.665	4.6
459.87	4.48
460.075	4.51
460.28	4.62
460.485	4.54
460.69	4.48
460.895	4.58
461.099	4.57
461.304	4.51
461.509	4.55
461.714	4.64
461.919	4.64
462.123	4.61
462.328	4.59
462.533	4.57
462.738	4.44
462.942	4.29
463.147	4.29
463.352	4.34
463.556	4.42
463.761	4.49
463.966	4.56
464.17	4.63
464.375	4.65
464.58	4.6
464.784	4.57
464.989	4.57
465.193	4.57
465.398	4.59
465.602	4.58
465.807	4.6
466.011	4.59
466.216	4.48
466.42	4.51
466.625	4.47
466.829	4.46
467.034	4.56
467.238	4.67
467.443	4.68
467.647	4.72
467.851	4.78
468.056	4.74
468.26	4.71
468.464	4.61
468.669	4.65
468.873	4.61
