Data from Ofav_PP_310_Reflection_3.txt Node
Date: Tue Jul 27 19:01:52 EDT 2021
User: USUARIO
Spectrometer: FLMT01687
Trigger mode: 0
Integration Time (sec): 8.500000E-1
Scans to average: 2
Electric dark correction enabled: true
Nonlinearity correction enabled: false
Boxcar width: 2
XAxis mode: Wavelengths
Number of Pixels in Spectrum: 3648
>>>>>Begin Spectral Data<<<<<
179.494	-903.7
179.716	-236.02
179.937	-112.31
180.158	-115.57
180.38	-2.53
180.601	74.97
180.823	-30.4
181.044	3.53
181.265	-58.82
181.486	-101.51
181.708	-21.26
181.929	23.71
182.15	-21.37
182.372	-25.56
182.593	-41.22
182.814	58.76
183.035	68.59
183.257	45.77
183.478	41.65
183.699	44.96
183.92	38.36
184.141	31.62
184.363	54.85
184.584	64.93
184.805	82.39
185.026	62.94
185.247	83.04
185.468	72.26
185.689	47.84
185.91	19.18
186.132	22.86
186.353	13.53
186.574	-11.48
186.795	-6.34
187.016	21.21
187.237	6.3
187.458	15.1
187.679	39.94
187.9	18.34
188.121	21.5
188.342	38.43
188.563	7.26
188.784	31.58
189.005	46.26
189.226	37.42
189.447	28.62
189.667	50.96
189.888	48.58
190.109	66.4
190.33	81.34
190.551	81.17
190.772	87.15
190.993	52.15
191.214	41.16
191.434	41.36
191.655	49.51
191.876	26.49
192.097	46.94
192.318	42.71
192.538	32.31
192.759	19.44
192.98	35.17
193.201	31.5
193.421	16.66
193.642	12.66
193.863	18.1
194.083	22.65
194.304	8
194.525	11.94
194.745	4.51
194.966	-19.07
195.187	-38.21
195.407	2.33
195.628	19.74
195.848	54.15
196.069	82.54
196.29	119.09
196.51	82.14
196.731	65.85
196.951	64.84
197.172	48.41
197.392	47.55
197.613	63.7
197.833	47.19
198.054	48.04
198.274	42.6
198.495	33.31
198.715	49.18
198.936	57.57
199.156	58.53
199.377	73.45
199.597	68.4
199.817	35.35
200.038	36.11
200.258	22.98
200.479	23.69
200.699	31.59
200.919	18.76
201.14	31.16
201.36	37.33
201.58	39.86
201.801	48.64
202.021	48.45
202.241	37.52
202.461	11.25
202.682	2.87
202.902	-20.68
203.122	-15.06
203.342	-18.13
203.563	12.45
203.783	9.66
204.003	8.04
204.223	-1.24
204.443	-9.37
204.663	-50.66
204.884	-18.82
205.104	19.7
205.324	28.3
205.544	34.54
205.764	42.27
205.984	25.47
206.204	-13.32
206.424	-22.86
206.644	-5.74
206.864	-8.09
207.084	2.74
207.304	21.79
207.525	12.65
207.745	5.09
207.964	7.33
208.184	15.71
208.404	8.11
208.624	35.39
208.844	54.29
209.064	55.92
209.284	48.6
209.504	48.34
209.724	29.8
209.944	2.4
210.164	-5.61
210.384	-41.59
210.604	-47.51
210.823	13.57
211.043	7.33
211.263	6.45
211.483	25.33
211.703	38.24
211.922	41.44
212.142	58.9
212.362	43.8
212.582	45.73
212.801	45.4
213.021	39.11
213.241	32.17
213.461	37.4
213.68	42.03
213.9	34.16
214.12	20.81
214.339	47.99
214.559	41.8
214.779	9.84
214.998	10.64
215.218	9.29
215.438	13.12
215.657	14.83
215.877	25.75
216.096	32.26
216.316	39.5
216.535	20.69
216.755	31.87
216.974	47.86
217.194	43.75
217.413	40.56
217.633	50.27
217.852	37.53
218.072	14.92
218.291	-0.26
218.511	20.45
218.73	20.16
218.95	13.94
219.169	40.43
219.389	44.38
219.608	52.65
219.827	72.22
220.047	98.65
220.266	65.81
220.485	70.34
220.705	49.53
220.924	46.08
221.143	40.96
221.363	20.17
221.582	3.41
221.801	1.51
222.021	5.23
222.24	9.31
222.459	1.68
222.678	-6.03
222.897	6.23
223.117	21.1
223.336	25.03
223.555	21.63
223.774	24.89
223.993	18.67
224.213	-16.92
224.432	-1.09
224.651	30.17
224.87	35.92
225.089	30.05
225.308	34.83
225.527	27.37
225.746	4.98
225.965	11.06
226.184	9.33
226.404	13.07
226.623	20.05
226.842	28.58
227.061	9.36
227.28	19.63
227.499	18.38
227.718	-3.92
227.936	-13.16
228.155	17.5
228.374	16.68
228.593	17.74
228.812	32.28
229.031	13.88
229.25	2.66
229.469	-1.81
229.688	-8.14
229.907	-16.45
230.125	22.87
230.344	40.94
230.563	47.45
230.782	53.51
231.001	48.01
231.22	50.73
231.438	27.48
231.657	18.28
231.876	18.01
232.095	32.51
232.313	27.56
232.532	28.05
232.751	21.81
232.969	18.26
233.188	8.84
233.407	10.96
233.625	19.96
233.844	25.52
234.063	27.16
234.281	26.71
234.5	9.9
234.719	26.3
234.937	10.58
235.156	19.58
235.374	24.86
235.593	38.76
235.811	39.68
236.03	52.73
236.249	32.99
236.467	35.3
236.686	34.44
236.904	22.27
237.123	13.88
237.341	24.19
237.559	16.21
237.778	26.18
237.996	29.55
238.215	31.67
238.433	38.15
238.652	49.79
238.87	38.87
239.088	39.03
239.307	52.65
239.525	26.17
239.743	11.42
239.962	13.45
240.18	8.25
240.398	8.94
240.617	19.01
240.835	27.88
241.053	26.95
241.271	32.59
241.49	36.67
241.708	41.58
241.926	26.43
242.144	26.03
242.363	38.38
242.581	26.12
242.799	35.92
243.017	32.68
243.235	45.51
243.453	24.63
243.672	25.34
243.89	14.27
244.108	18.71
244.326	6.83
244.544	-2.94
244.762	-4.6
244.98	12.27
245.198	0.52
245.416	15.12
245.634	34.37
245.852	38.76
246.07	34.89
246.288	47.52
246.506	42.14
246.724	44.31
246.942	35.89
247.16	18.41
247.378	8.87
247.596	26.73
247.814	25.9
248.032	18.39
248.25	25.37
248.468	42.35
248.685	17.83
248.903	0.53
249.121	18.23
249.339	15.01
249.557	5.4
249.775	5.5
249.992	20.27
250.21	18.41
250.428	15.32
250.646	10.4
250.863	28.58
251.081	31.66
251.299	10.1
251.517	25.54
251.734	42.08
251.952	17.63
252.17	25.09
252.387	37.98
252.605	55.6
252.823	59.55
253.04	74.13
253.258	67.17
253.475	57.92
253.693	47.94
253.911	42.5
254.128	29.93
254.346	17.33
254.563	30.75
254.781	26.61
254.998	39.7
255.216	21.29
255.433	42.07
255.651	41.08
255.868	24.93
256.086	5.06
256.303	8.09
256.521	15.03
256.738	15.75
256.956	29.91
257.173	39.12
257.39	42.19
257.608	34.92
257.825	44.92
258.043	39.77
258.26	48.32
258.477	45.3
258.695	39.39
258.912	29.91
259.129	37.8
259.346	24.2
259.564	33.64
259.781	76.24
259.998	57.66
260.216	47.06
260.433	37.74
260.65	46.24
260.867	22.36
261.084	35.29
261.302	18.83
261.519	26.99
261.736	20.67
261.953	36.13
262.17	17.56
262.387	17.2
262.604	20.59
262.822	22.31
263.039	12.08
263.256	26.98
263.473	38.99
263.69	44.9
263.907	23.68
264.124	28.4
264.341	20.99
264.558	29.89
264.775	16.41
264.992	38.68
265.209	40.95
265.426	44.11
265.643	36.9
265.86	31.88
266.077	20.2
266.294	23.06
266.51	23.81
266.727	29.19
266.944	37.48
267.161	43.46
267.378	27.94
267.595	36.73
267.812	47.94
268.028	62.67
268.245	70.62
268.462	90.69
268.679	77.3
268.896	59.13
269.112	37.41
269.329	17.55
269.546	18.75
269.763	16.25
269.979	13.67
270.196	21.13
270.413	34.88
270.629	38.22
270.846	51.24
271.063	46.79
271.279	44.55
271.496	45.48
271.712	29.58
271.929	0.93
272.146	-18.1
272.362	3.69
272.579	13.86
272.795	23.08
273.012	22.72
273.228	32.42
273.445	28.54
273.661	19.5
273.878	2.03
274.094	17.59
274.311	17.55
274.527	23.86
274.744	22.45
274.96	34.79
275.177	18.89
275.393	15.96
275.609	24.93
275.826	20.8
276.042	7.75
276.259	17.35
276.475	15.87
276.691	6.26
276.908	3.84
277.124	13.75
277.34	22.97
277.557	5.65
277.773	-2.46
277.989	12.93
278.205	26.6
278.422	21.25
278.638	21.66
278.854	35.06
279.07	35.9
279.286	19.75
279.503	15.82
279.719	34.75
279.935	29.92
280.151	32.25
280.367	38.19
280.583	39.77
280.799	43.23
281.016	51.69
281.232	42.72
281.448	42.35
281.664	31.14
281.88	25.71
282.096	12.02
282.312	11.11
282.528	26.46
282.744	35.29
282.96	39.95
283.176	48.06
283.392	68.83
283.608	67.02
283.824	60.64
284.04	31.96
284.256	26.08
284.471	11.91
284.687	-2.69
284.903	9.97
285.119	16.35
285.335	8.93
285.551	10.8
285.767	27.62
285.982	5.21
286.198	20.7
286.414	20.68
286.63	22.37
286.846	3.13
287.061	18.35
287.277	4.49
287.493	11.55
287.709	7.2
287.924	18.47
288.14	15.29
288.356	39.9
288.571	43.4
288.787	54.59
289.003	36.11
289.218	22.07
289.434	7.35
289.65	6.22
289.865	-12.56
290.081	15.58
290.296	17.73
290.512	18.38
290.727	26.35
290.943	25.61
291.159	34.56
291.374	48.79
291.59	50.38
291.805	47.11
292.021	55.5
292.236	49.79
292.451	35.88
292.667	36.41
292.882	24.69
293.098	23.58
293.313	25.05
293.529	34.33
293.744	39.61
293.959	49.09
294.175	54
294.39	51.57
294.605	49.71
294.821	38.76
295.036	30.37
295.251	17.79
295.467	7.8
295.682	-14.67
295.897	3.46
296.112	29.04
296.328	38.31
296.543	45.27
296.758	59.33
296.973	64.17
297.188	56.69
297.404	38.47
297.619	29.77
297.834	27.64
298.049	21.49
298.264	18.68
298.479	22.86
298.694	24.29
298.909	16.1
299.125	19.19
299.34	17.01
299.555	30.32
299.77	31.73
299.985	36.07
300.2	35.69
300.415	27.64
300.63	19.34
300.845	24.4
301.06	22.28
301.275	23.56
301.49	29.51
301.704	24.82
301.919	26.45
302.134	25.98
302.349	24.71
302.564	24.14
302.779	20.92
302.994	7.9
303.209	2
303.423	-5.16
303.638	-17.84
303.853	-14.42
304.068	-1.17
304.283	4.54
304.497	-4.49
304.712	14.15
304.927	4.71
305.142	18.38
305.356	-2.69
305.571	15
305.786	3.02
306	6.58
306.215	0.87
306.43	16.49
306.644	17.11
306.859	19.24
307.074	39.18
307.288	35.33
307.503	32.08
307.717	24.25
307.932	24.05
308.147	18.29
308.361	7.64
308.576	12.63
308.79	21.19
309.005	7.6
309.219	-13.28
309.434	-16.42
309.648	-14.45
309.863	-34.7
310.077	-17.68
310.292	-1.45
310.506	-7.31
310.72	-3.05
310.935	4.25
311.149	-0.97
311.364	-14.33
311.578	13.88
311.792	10.36
312.007	39.48
312.221	58.85
312.435	64.9
312.649	63.23
312.864	58.39
313.078	39.43
313.292	6.82
313.507	-2.73
313.721	30.22
313.935	26.1
314.149	24.18
314.363	24.98
314.578	31.85
314.792	17.84
315.006	29.36
315.22	36.61
315.434	30.72
315.648	31.53
315.862	33.43
316.077	20
316.291	26.02
316.505	36
316.719	42.45
316.933	34.21
317.147	42.99
317.361	32.8
317.575	18.4
317.789	-0.25
318.003	2.04
318.217	19.17
318.431	8.34
318.645	12.81
318.859	20.35
319.073	15.44
319.287	-3.63
319.5	-7.43
319.714	-2.73
319.928	3.11
320.142	-10.08
320.356	14.91
320.57	27.75
320.784	31.25
320.997	36.9
321.211	45.43
321.425	33.32
321.639	30.05
321.853	23.74
322.066	14.76
322.28	7.3
322.494	7.66
322.707	15.76
322.921	27.47
323.135	24.14
323.349	27.76
323.562	28.12
323.776	11.9
323.989	-13.71
324.203	-8.84
324.417	-25.8
324.63	6.62
324.844	18.08
325.057	34.16
325.271	47.73
325.485	56.18
325.698	36.11
325.912	49.14
326.125	51.53
326.339	40.87
326.552	49.94
326.766	55
326.979	44.5
327.193	25.55
327.406	34.83
327.619	19.07
327.833	7.5
328.046	16.94
328.26	33.15
328.473	21.09
328.686	29.59
328.9	43.27
329.113	35.37
329.326	-0.08
329.54	0.86
329.753	-33.58
329.966	-40.11
330.179	-64.04
330.393	-10.37
330.606	-25.05
330.819	8.9
331.032	25.74
331.246	44.25
331.459	39.11
331.672	39.83
331.885	37.17
332.098	42.69
332.311	29.01
332.525	25.52
332.738	30.55
332.951	29.94
333.164	18.92
333.377	33.69
333.59	42.31
333.803	48.33
334.016	42.62
334.229	39.72
334.442	48.63
334.655	59.34
334.868	61.9
335.081	68.31
335.294	69.32
335.507	54.54
335.72	45.31
335.933	33.26
336.146	16.69
336.359	23.66
336.572	9.47
336.785	8.62
336.997	11.33
337.21	25.07
337.423	12.72
337.636	35.36
337.849	18.13
338.062	17.08
338.274	20.98
338.487	20.27
338.7	14.75
338.913	9.95
339.125	-10.75
339.338	-29.72
339.551	-42.48
339.763	-37.82
339.976	-21.73
340.189	8.46
340.402	10.22
340.614	16.55
340.827	24.67
341.039	22
341.252	10.23
341.465	4.4
341.677	18.72
341.89	1.31
342.102	20.67
342.315	12.4
342.527	19.65
342.74	11.4
342.952	-1.66
343.165	0.59
343.377	14.71
343.59	12.33
343.802	23
344.015	34.32
344.227	29.1
344.44	9.31
344.652	19.52
344.864	-16.84
345.077	-12.23
345.289	-16.45
345.502	-2.11
345.714	-2.37
345.926	-2.68
346.139	14.23
346.351	23.64
346.563	25.14
346.775	16.43
346.988	33.15
347.2	27.68
347.412	29.94
347.624	15.37
347.837	6.57
348.049	2.25
348.261	-4.28
348.473	-11.06
348.685	9.09
348.897	11.87
349.11	13.36
349.322	9.06
349.534	25.17
349.746	25.7
349.958	37.27
350.17	43.17
350.382	41.05
350.594	16.25
350.806	7.76
351.018	1.34
351.23	-9.08
351.442	-6.18
351.654	30.07
351.866	32.6
352.078	32.46
352.29	40.65
352.502	35.73
352.714	30.32
352.926	26.59
353.138	32.66
353.35	23.82
353.561	25.09
353.773	25.81
353.985	7.84
354.197	17.93
354.409	11.94
354.621	18.44
354.832	12.08
355.044	20.14
355.256	11.26
355.468	15.95
355.679	11.53
355.891	23.97
356.103	27.65
356.314	28.7
356.526	24.69
356.738	17.86
356.949	3.95
357.161	18.89
357.373	14.78
357.584	15.49
357.796	24.74
358.008	30.9
358.219	35.37
358.431	39.15
358.642	41.74
358.854	41.81
359.065	31.05
359.277	22.05
359.488	34.63
359.7	34.84
359.911	43.24
360.123	48.92
360.334	45.03
360.546	27.45
360.757	21.02
360.969	4.45
361.18	15.83
361.391	21.08
361.603	31.95
361.814	29.83
362.025	40.3
362.237	30.42
362.448	22.84
362.659	9.23
362.871	14.31
363.082	2.07
363.293	7.63
363.504	1.1
363.716	2.41
363.927	-13.53
364.138	-0.86
364.349	-4.49
364.56	4.03
364.772	17.09
364.983	25.17
365.194	8.59
365.405	13.67
365.616	10.85
365.827	22.23
366.038	25.94
366.25	29.49
366.461	28.69
366.672	28.52
366.883	12.77
367.094	31.26
367.305	36.52
367.516	35.64
367.727	47.25
367.938	50.36
368.149	22.77
368.36	10.43
368.571	3.64
368.781	-3.96
368.992	-5.08
369.203	-7.38
369.414	3.14
369.625	14.29
369.836	17.23
370.047	19.38
370.258	40.18
370.468	32.14
370.679	16
370.89	15.21
371.101	10.95
371.312	5.68
371.522	9.97
371.733	21.76
371.944	28.05
372.155	30.38
372.365	17.89
372.576	19.72
372.787	22.8
372.997	22.44
373.208	21.71
373.419	31.54
373.629	29.05
373.84	29.46
374.05	23.21
374.261	18.63
374.472	22.08
374.682	21.64
374.893	21.16
375.103	22.1
375.314	25.88
375.524	27.65
375.735	26.12
375.945	18.16
376.156	24.51
376.366	32.61
376.577	15.84
376.787	17.4
376.997	19.89
377.208	16.14
377.418	7.82
377.629	22.6
377.839	30.61
378.049	31.1
378.26	31
378.47	35.51
378.68	30.75
378.89	28.14
379.101	23.4
379.311	21.84
379.521	26.84
379.732	19.02
379.942	25.01
380.152	29.65
380.362	37.15
380.572	27.87
380.783	26.99
380.993	16.79
381.203	7.35
381.413	0.17
381.623	-4.02
381.833	-0.94
382.043	4.99
382.253	11.76
382.463	7.83
382.674	21.04
382.884	13.43
383.094	8.21
383.304	6.11
383.514	11.67
383.724	2.05
383.934	8.89
384.144	7.71
384.353	7.81
384.563	12.03
384.773	17.39
384.983	12.81
385.193	10.89
385.403	8.99
385.613	7.24
385.823	5.34
386.033	9.39
386.242	16
386.452	14.84
386.662	14.13
386.872	18.68
387.082	13.16
387.291	7.63
387.501	13.65
387.711	11.43
387.921	10.89
388.13	14.91
388.34	14.33
388.55	10.74
388.759	9.81
388.969	6.13
389.179	6.93
389.388	10.86
389.598	15.46
389.807	15.42
390.017	14.62
390.227	15.7
390.436	13.72
390.646	9.62
390.855	8.52
391.065	8.47
391.274	5.36
391.484	4.3
391.693	6.18
391.903	8.26
392.112	8.76
392.322	9.08
392.531	8.97
392.74	9.1
392.95	9.14
393.159	9.25
393.369	9.4
393.578	10.65
393.787	10.05
393.997	9.84
394.206	10.86
394.415	10.21
394.625	9.43
394.834	8.91
395.043	8.39
395.252	8.07
395.462	9.17
395.671	8.44
395.88	9.44
396.089	9.72
396.298	9.23
396.508	9.6
396.717	10.74
396.926	9.86
397.135	9.94
397.344	9.87
397.553	9.2
397.762	8.82
397.971	9.16
398.181	8.88
398.39	9.03
398.599	9.26
398.808	9.05
399.017	9.22
399.226	9.6
399.435	9.36
399.644	9.75
399.853	10.18
400.062	10.29
400.27	10.06
400.479	9.94
400.688	9.42
400.897	9.32
401.106	9.14
401.315	9.15
401.524	9.14
401.733	9.33
401.941	9.11
402.15	9.1
402.359	9.18
402.568	9.6
402.777	9.32
402.985	9.53
403.194	9.8
403.403	9.6
403.612	9.38
403.82	9.41
404.029	9.19
404.238	8.99
404.446	9.25
404.655	9.25
404.864	9.33
405.072	9.34
405.281	9.21
405.489	9.01
405.698	9.22
405.906	9.21
406.115	9.12
406.324	9.17
406.532	9.02
406.741	8.88
406.949	8.9
407.158	8.9
407.366	8.76
407.574	9.01
407.783	8.8
407.991	8.7
408.2	8.64
408.408	8.79
408.617	8.72
408.825	8.75
409.033	8.66
409.242	8.65
409.45	8.57
409.658	8.58
409.867	8.65
410.075	8.55
410.283	8.63
410.491	8.51
410.7	8.29
410.908	8.24
411.116	8.45
411.324	8.38
411.533	8.49
411.741	8.42
411.949	8.4
412.157	8.3
412.365	8.55
412.573	8.39
412.781	8.55
412.99	8.5
413.198	8.71
413.406	8.45
413.614	8.59
413.822	8.64
414.03	8.59
414.238	8.34
414.446	8.33
414.654	8.24
414.862	8.1
415.07	8.14
415.278	8.05
415.486	7.98
415.694	7.83
415.902	7.77
416.109	7.79
416.317	7.91
416.525	7.95
416.733	8.04
416.941	8.07
417.149	7.96
417.357	8.06
417.564	7.89
417.772	7.86
417.98	7.78
418.188	7.88
418.395	7.72
418.603	7.82
418.811	7.98
419.019	8.09
419.226	8.09
419.434	8.2
419.642	8.35
419.849	8.21
420.057	8.03
420.265	7.91
420.472	7.77
420.68	7.73
420.887	7.77
421.095	7.85
421.302	7.9
421.51	7.84
421.717	7.8
421.925	7.79
422.132	7.78
422.34	7.73
422.547	7.82
422.755	7.73
422.962	7.73
423.17	7.74
423.377	7.84
423.585	7.83
423.792	7.74
423.999	7.65
424.207	7.69
424.414	7.49
424.621	7.49
424.829	7.54
425.036	7.58
425.243	7.57
425.451	7.48
425.658	7.38
425.865	7.54
426.072	7.48
426.28	7.42
426.487	7.59
426.694	7.55
426.901	7.36
427.108	7.32
427.315	7.35
427.523	7.3
427.73	7.13
427.937	7.19
428.144	7.33
428.351	7.15
428.558	7.28
428.765	7.52
428.972	7.43
429.179	7.38
429.386	7.38
429.593	7.32
429.8	7.27
430.007	7.2
430.214	7.12
430.421	7.26
430.628	7.15
430.835	7.2
431.042	7.18
431.249	7.29
431.456	7.25
431.662	7.46
431.869	7.43
432.076	7.44
432.283	7.46
432.49	7.51
432.697	7.45
432.903	7.46
433.11	7.61
433.317	7.55
433.524	7.45
433.73	7.28
433.937	7.24
434.144	7.13
434.35	7.1
434.557	7.16
434.764	7.18
434.97	7.13
435.177	7.16
435.384	7.05
435.59	7.02
435.797	7.09
436.003	7.09
436.21	7.06
436.416	7.12
436.623	7.08
436.829	6.96
437.036	6.97
437.242	6.91
437.449	6.9
437.655	6.96
437.862	7.05
438.068	7.15
438.275	7.28
438.481	7.15
438.687	7.08
438.894	7.09
439.1	6.96
439.307	6.87
439.513	7.04
439.719	7.22
439.926	7.11
440.132	7.24
440.338	7.2
440.544	7.19
440.751	7.03
440.957	7.11
441.163	6.9
441.369	6.96
441.575	6.87
441.782	6.89
441.988	6.86
442.194	7.01
442.4	7.1
442.606	7.08
442.812	7.11
443.018	7.06
443.224	7.02
443.431	6.87
443.637	6.93
443.843	6.9
444.049	7.03
444.255	6.99
444.461	6.95
444.667	6.93
444.873	6.88
445.079	6.85
445.284	6.92
445.49	7.02
445.696	7.04
445.902	6.99
446.108	6.96
446.314	6.9
446.52	6.88
446.726	6.83
446.931	6.91
447.137	6.84
447.343	6.83
447.549	6.79
447.755	6.8
447.96	6.85
448.166	6.91
448.372	6.88
448.578	6.86
448.783	6.92
448.989	6.88
449.195	6.86
449.4	6.89
449.606	6.87
449.812	6.78
450.017	6.81
450.223	6.74
450.428	6.72
450.634	6.76
450.84	6.7
451.045	6.73
451.251	6.78
451.456	6.8
451.662	6.69
451.867	6.86
452.073	6.71
452.278	6.7
452.483	6.57
452.689	6.6
452.894	6.53
453.1	6.59
453.305	6.6
453.51	6.73
453.716	6.72
453.921	6.76
454.127	6.77
454.332	6.7
454.537	6.73
454.742	6.63
454.948	6.43
455.153	6.49
455.358	6.56
455.563	6.57
455.769	6.77
455.974	6.82
456.179	6.72
456.384	6.61
456.589	6.6
456.795	6.47
457	6.47
457.205	6.41
457.41	6.39
457.615	6.34
457.82	6.37
458.025	6.4
458.23	6.48
458.435	6.5
458.64	6.34
458.845	6.3
459.05	6.29
459.255	6.25
459.46	6.41
459.665	6.56
459.87	6.56
460.075	6.72
460.28	6.74
460.485	6.64
460.69	6.6
460.895	6.72
461.099	6.66
461.304	6.66
461.509	6.74
461.714	6.83
461.919	6.8
462.123	6.74
462.328	6.73
462.533	6.68
462.738	6.6
462.942	6.58
463.147	6.54
463.352	6.5
463.556	6.59
463.761	6.59
463.966	6.57
464.17	6.76
464.375	6.78
464.58	6.69
464.784	6.66
464.989	6.7
465.193	6.54
465.398	6.56
465.602	6.59
465.807	6.64
466.011	6.59
466.216	6.63
466.42	6.65
466.625	6.55
466.829	6.51
467.034	6.55
467.238	6.57
467.443	6.64
467.647	6.69
467.851	6.71
468.056	6.71
468.26	6.67
468.464	6.63
468.669	6.7
468.873	6.68
469.077	6.69
469.282	6.7
