Data from Ofav_PP_Phys_358_Reflection_1.txt Node
Date: Tue Jul 27 19:06:48 EDT 2021
User: USUARIO
Spectrometer: FLMT01687
Trigger mode: 0
Integration Time (sec): 8.500000E-1
Scans to average: 2
Electric dark correction enabled: true
Nonlinearity correction enabled: false
Boxcar width: 2
XAxis mode: Wavelengths
Number of Pixels in Spectrum: 3648
>>>>>Begin Spectral Data<<<<<
179.494	-1270.37
179.716	-450.54
179.937	-315.67
180.158	-289.09
180.38	-365.94
180.601	-388.02
180.823	106.6
181.044	76.82
181.265	21.61
181.486	-31.96
181.708	-18.56
181.929	72.44
182.15	20.62
182.372	52.68
182.593	54.09
182.814	96.69
183.035	90.68
183.257	75.14
183.478	45.31
183.699	45.98
183.92	43.42
184.141	40.71
184.363	70.01
184.584	78.83
184.805	81.47
185.026	55.13
185.247	69.82
185.468	34.32
185.689	12.88
185.91	-5.5
186.132	-0.14
186.353	13.29
186.574	25.12
186.795	48.79
187.016	65.57
187.237	77.7
187.458	59.31
187.679	51.28
187.9	25.08
188.121	36.86
188.342	43.28
188.563	48.42
188.784	72.34
189.005	88.68
189.226	69.25
189.447	51.25
189.667	65.11
189.888	61.2
190.109	60.65
190.33	81.26
190.551	83.02
190.772	42.34
190.993	30.01
191.214	26.98
191.434	17.78
191.655	29.19
191.876	29.78
192.097	26.46
192.318	39.89
192.538	60.09
192.759	60.28
192.98	66.09
193.201	83.29
193.421	92.37
193.642	57.29
193.863	36.39
194.083	39.1
194.304	10.64
194.525	-6.11
194.745	-27.51
194.966	-44.78
195.187	-56.74
195.407	-3.12
195.628	21.43
195.848	22.3
196.069	34.65
196.29	61.82
196.51	67.94
196.731	62.61
196.951	88.49
197.172	91.5
197.392	88.25
197.613	93.93
197.833	96.51
198.054	110.74
198.274	69.94
198.495	65.19
198.715	83.29
198.936	83.41
199.156	77.52
199.377	151.38
199.597	179.12
199.817	79.6
200.038	66.09
200.258	76.92
200.479	39.37
200.699	38.81
200.919	52.71
201.14	52.33
201.36	39.85
201.58	38.08
201.801	38.83
202.021	13.89
202.241	31.65
202.461	15.51
202.682	13.85
202.902	10.26
203.122	57.41
203.342	16.68
203.563	30.59
203.783	32.57
204.003	33.77
204.223	28.11
204.443	33.64
204.663	8.65
204.884	0.13
205.104	5.11
205.324	1.77
205.544	21.87
205.764	26.57
205.984	49.4
206.204	35.03
206.424	55.33
206.644	34.07
206.864	49.46
207.084	37.34
207.304	48.83
207.525	38.34
207.745	57.79
207.964	69.65
208.184	63.96
208.404	67.12
208.624	69.88
208.844	68.02
209.064	73.81
209.284	75.32
209.504	77.01
209.724	91.46
209.944	81.02
210.164	65.36
210.384	58.76
210.604	64.64
210.823	42.25
211.043	27.07
211.263	21.66
211.483	37.78
211.703	42.04
211.922	31.46
212.142	64.52
212.362	27.25
212.582	10.52
212.801	24.54
213.021	28.4
213.241	17.95
213.461	59.71
213.68	59.78
213.9	72.19
214.12	67.89
214.339	88.36
214.559	68.54
214.779	71.54
214.998	57.99
215.218	52.49
215.438	59.39
215.657	61.13
215.877	47.78
216.096	44.26
216.316	57.45
216.535	46.32
216.755	75.27
216.974	81.31
217.194	82.82
217.413	72.95
217.633	56.77
217.852	46.67
218.072	35.58
218.291	35.65
218.511	28.53
218.73	47.95
218.95	28.96
219.169	42.37
219.389	54.36
219.608	57.62
219.827	66.17
220.047	79.7
220.266	61.16
220.485	47.57
220.705	50.77
220.924	34.75
221.143	35.95
221.363	37.38
221.582	35.65
221.801	41.28
222.021	52.68
222.24	60.33
222.459	52.13
222.678	72.82
222.897	53.6
223.117	44.72
223.336	28.07
223.555	26.04
223.774	16.15
223.993	36.56
224.213	49.95
224.432	56.5
224.651	74.78
224.87	71.52
225.089	53.93
225.308	41.95
225.527	42.06
225.746	33.75
225.965	32.37
226.184	27
226.404	19.69
226.623	8.73
226.842	10.3
227.061	-0.33
227.28	11.99
227.499	31.06
227.718	35.15
227.936	41.85
228.155	55.06
228.374	65.16
228.593	46.96
228.812	67.1
229.031	59.59
229.25	55.67
229.469	34.81
229.688	48.36
229.907	-10.67
230.125	0.34
230.344	8.29
230.563	24.65
230.782	35.3
231.001	43.98
231.22	40.91
231.438	20.41
231.657	16.65
231.876	16.34
232.095	18.29
232.313	31.79
232.532	65.55
232.751	82.77
232.969	80.82
233.188	89.15
233.407	83.91
233.625	77.26
233.844	43.79
234.063	39.56
234.281	33.83
234.5	25.53
234.719	42.65
234.937	38.06
235.156	41.79
235.374	37.05
235.593	41.62
235.811	23.88
236.03	36.36
236.249	33.11
236.467	44.84
236.686	50.72
236.904	57.59
237.123	46.48
237.341	68.19
237.559	62.43
237.778	62.63
237.996	44
238.215	49.07
238.433	41.64
238.652	43.81
238.87	41.21
239.088	41.94
239.307	70.94
239.525	40.27
239.743	16.93
239.962	1.46
240.18	15.58
240.398	-5.87
240.617	10.38
240.835	35.27
241.053	61.83
241.271	54.82
241.49	61.33
241.708	76.63
241.926	49.95
242.144	37.27
242.363	67.46
242.581	66.95
242.799	34.02
243.017	21.7
243.235	26.23
243.453	0.38
243.672	13.33
243.89	22.98
244.108	39.34
244.326	33.39
244.544	35.63
244.762	29.18
244.98	41.1
245.198	46.09
245.416	67.93
245.634	86.3
245.852	112.1
246.07	110.04
246.288	98
246.506	92.34
246.724	78.11
246.942	61.52
247.16	60.45
247.378	57.58
247.596	47.32
247.814	43.21
248.032	25.26
248.25	21.59
248.468	22.02
248.685	44.63
248.903	39.07
249.121	52.77
249.339	64.28
249.557	64.71
249.775	40.45
249.992	41.87
250.21	52.47
250.428	38.69
250.646	21.91
250.863	38.77
251.081	56.65
251.299	49.12
251.517	54.8
251.734	61.51
251.952	32.89
252.17	39.52
252.387	28.09
252.605	37.46
252.823	37.88
253.04	70.79
253.258	58.88
253.475	57.61
253.693	59.26
253.911	75.4
254.128	54.35
254.346	60.5
254.563	60.16
254.781	60.27
254.998	64.55
255.216	39.9
255.433	22.27
255.651	41.79
255.868	35.21
256.086	19.68
256.303	36.54
256.521	53.57
256.738	54.53
256.956	52.56
257.173	44.08
257.39	48.31
257.608	51.62
257.825	43.2
258.043	48.32
258.26	64.53
258.477	59.51
258.695	49.91
258.912	70.36
259.129	77.42
259.346	63.43
259.564	85.52
259.781	101.78
259.998	45.98
260.216	41.84
260.433	40.2
260.65	39.5
260.867	33.95
261.084	41.69
261.302	31.16
261.519	36.98
261.736	27.15
261.953	19.23
262.17	23.84
262.387	25.37
262.604	31.12
262.822	44.34
263.039	46.68
263.256	57.42
263.473	71.19
263.69	75.92
263.907	49.23
264.124	75.18
264.341	69.73
264.558	62.36
264.775	49.31
264.992	62.03
265.209	38.29
265.426	32.94
265.643	21.23
265.86	12.3
266.077	13.08
266.294	21.03
266.51	33.08
266.727	42.43
266.944	49.06
267.161	36.29
267.378	52.77
267.595	54.04
267.812	50.83
268.028	62.05
268.245	66.51
268.462	49.74
268.679	31.66
268.896	31.14
269.112	16.54
269.329	27.52
269.546	40.71
269.763	39.41
269.979	44.94
270.196	68.42
270.413	71.18
270.629	65.7
270.846	78.4
271.063	57.38
271.279	47.76
271.496	38.04
271.712	18.32
271.929	-5.46
272.146	19.03
272.362	28.11
272.579	23.21
272.795	40.42
273.012	46.89
273.228	43.44
273.445	47.34
273.661	54.22
273.878	44.85
274.094	33.76
274.311	42.58
274.527	40.04
274.744	31.62
274.96	27.95
275.177	22.5
275.393	16.46
275.609	3.04
275.826	8.99
276.042	11.89
276.259	43.66
276.475	34.36
276.691	41.03
276.908	33.33
277.124	43.4
277.34	44.12
277.557	63.01
277.773	53.42
277.989	61.84
278.205	60.32
278.422	55.01
278.638	47.13
278.854	68.48
279.07	77.52
279.286	61.72
279.503	59.58
279.719	59.71
279.935	61.84
280.151	63.35
280.367	70.96
280.583	66.99
280.799	74.26
281.016	58.53
281.232	48.24
281.448	46.01
281.664	40.97
281.88	13.22
282.096	9.23
282.312	14.07
282.528	-3.24
282.744	-10.23
282.96	3.07
283.176	33.27
283.392	42.58
283.608	85.6
283.824	72.12
284.04	42.59
284.256	37.87
284.471	26.26
284.687	7.22
284.903	5.49
285.119	30.24
285.335	16.07
285.551	15.36
285.767	31.9
285.982	30.43
286.198	41.79
286.414	43.98
286.63	50.23
286.846	35.19
287.061	34.21
287.277	11.77
287.493	14.05
287.709	13.15
287.924	25.17
288.14	37.58
288.356	61.81
288.571	74.72
288.787	68.32
289.003	67.79
289.218	58.91
289.434	60.51
289.65	56.96
289.865	44.17
290.081	46.81
290.296	42.48
290.512	40.99
290.727	40.4
290.943	74.36
291.159	91.82
291.374	106.56
291.59	99.29
291.805	79.34
292.021	63.7
292.236	65.09
292.451	51.07
292.667	46.34
292.882	44.14
293.098	33.56
293.313	25.97
293.529	40.48
293.744	36.08
293.959	32.03
294.175	41.88
294.39	34.86
294.605	25.63
294.821	32.42
295.036	42.77
295.251	37.3
295.467	26.33
295.682	25.23
295.897	19
296.112	36.38
296.328	65.5
296.543	78.04
296.758	72.3
296.973	75.87
297.188	70.87
297.404	42.83
297.619	43.9
297.834	56.43
298.049	46.55
298.264	47.07
298.479	58.78
298.694	58.91
298.909	44.09
299.125	46.75
299.34	40.25
299.555	47.48
299.77	40.37
299.985	40.62
300.2	41.44
300.415	37.18
300.63	27.98
300.845	32.57
301.06	37.27
301.275	41.74
301.49	42.77
301.704	35.24
301.919	39.41
302.134	47.31
302.349	37.06
302.564	30.03
302.779	22.04
302.994	21.64
303.209	25.93
303.423	31.17
303.638	26.83
303.853	33.73
304.068	41.3
304.283	42.51
304.497	50.04
304.712	56.45
304.927	57.66
305.142	53.35
305.356	28.18
305.571	16.4
305.786	23.04
306	43.33
306.215	52.2
306.43	66.51
306.644	75.77
306.859	80.74
307.074	84.87
307.288	72.76
307.503	74.19
307.717	64.79
307.932	47.58
308.147	45.42
308.361	45.12
308.576	36.17
308.79	43.71
309.005	56.4
309.219	46.62
309.434	47.86
309.648	46.45
309.863	37.09
310.077	38.74
310.292	25.59
310.506	16.9
310.72	17.32
310.935	2.33
311.149	-9.3
311.364	-3.58
311.578	10.44
311.792	12.43
312.007	35.16
312.221	33.2
312.435	28.82
312.649	41.8
312.864	42.43
313.078	30.64
313.292	54.26
313.507	59.48
313.721	68.13
313.935	54.69
314.149	51.7
314.363	50.4
314.578	46.63
314.792	34.83
315.006	43.49
315.22	43.38
315.434	37.26
315.648	36.7
315.862	24.33
316.077	18.08
316.291	23.58
316.505	24.06
316.719	25.88
316.933	44.16
317.147	41.3
317.361	40.5
317.575	25.21
317.789	36.53
318.003	26.08
318.217	25.19
318.431	12.42
318.645	31.19
318.859	29.35
319.073	31.94
319.287	35.15
319.5	35.31
319.714	15.31
319.928	20.44
320.142	22.7
320.356	25.55
320.57	48.64
320.784	55.29
320.997	56.44
321.211	59.03
321.425	55.54
321.639	39.33
321.853	32.96
322.066	27.48
322.28	0.32
322.494	-6.13
322.707	1.34
322.921	9.66
323.135	2.87
323.349	20.84
323.562	36.14
323.776	35.37
323.989	9.37
324.203	17.47
324.417	-2.11
324.63	9.18
324.844	20.76
325.057	32.75
325.271	57.01
325.485	67.45
325.698	61.56
325.912	44.4
326.125	64.39
326.339	48.5
326.552	48.8
326.766	37.44
326.979	38.58
327.193	18.65
327.406	13.78
327.619	6.44
327.833	4.65
328.046	14.8
328.26	16.08
328.473	23.32
328.686	38.1
328.9	37.53
329.113	47.65
329.326	62.74
329.54	48.42
329.753	25.36
329.966	21.58
330.179	-4.93
330.393	20.28
330.606	10.31
330.819	37.99
331.032	55.96
331.246	62.63
331.459	58.11
331.672	70.05
331.885	66.49
332.098	76.41
332.311	79.78
332.525	78.19
332.738	66.07
332.951	60.39
333.164	47.4
333.377	41.69
333.59	41.34
333.803	45.22
334.016	40.65
334.229	32.59
334.442	42.62
334.655	46.24
334.868	45.71
335.081	41.88
335.294	51.74
335.507	42.96
335.72	47.18
335.933	28.96
336.146	32.19
336.359	17.85
336.572	28.31
336.785	19.77
336.997	43.61
337.21	63.51
337.423	80.96
337.636	72.72
337.849	63.3
338.062	52.48
338.274	34.96
338.487	32.76
338.7	21.03
338.913	21.83
339.125	31.24
339.338	28.05
339.551	14.64
339.763	36.84
339.976	32.32
340.189	28.45
340.402	39.63
340.614	37.63
340.827	38.74
341.039	41.23
341.252	29.2
341.465	4.35
341.677	23.97
341.89	16.79
342.102	27.82
342.315	38.52
342.527	48.27
342.74	44.82
342.952	33.69
343.165	34.73
343.377	21.41
343.59	17.87
343.802	11.19
344.015	23.31
344.227	16.23
344.44	12.11
344.652	7.12
344.864	11.94
345.077	0.41
345.289	2.85
345.502	11.61
345.714	20.95
345.926	12.79
346.139	25.54
346.351	21.69
346.563	18.66
346.775	18.79
346.988	30.75
347.2	16.81
347.412	25.32
347.624	26.43
347.837	9.84
348.049	18.81
348.261	19.27
348.473	20.91
348.685	32.5
348.897	46.36
349.11	42.86
349.322	45
349.534	41.74
349.746	35.05
349.958	44.72
350.17	43.57
350.382	42.38
350.594	30.72
350.806	49.13
351.018	37.24
351.23	29.02
351.442	40.13
351.654	69.38
351.866	43.34
352.078	48.83
352.29	47
352.502	53.04
352.714	36.03
352.926	36.44
353.138	28.47
353.35	41.2
353.561	31.66
353.773	32.28
353.985	42.49
354.197	45.11
354.409	38.51
354.621	33.11
354.832	41.51
355.044	32.63
355.256	36.17
355.468	40.33
355.679	54.11
355.891	49.17
356.103	59.87
356.314	60.66
356.526	55.22
356.738	31.29
356.949	26.87
357.161	35.75
357.373	22.91
357.584	28.12
357.796	42.38
358.008	47.59
358.219	44.37
358.431	42.35
358.642	30.91
358.854	34.92
359.065	27.76
359.277	26.95
359.488	39.6
359.7	43.78
359.911	40.1
360.123	48.56
360.334	41.84
360.546	40.3
360.757	51.1
360.969	44.65
361.18	43.35
361.391	47.84
361.603	47.77
361.814	36.25
362.025	49.01
362.237	38.43
362.448	22.68
362.659	17.7
362.871	14.91
363.082	2.57
363.293	15.91
363.504	34.27
363.716	25.23
363.927	28.51
364.138	24.41
364.349	19.88
364.56	8.67
364.772	15.34
364.983	23.86
365.194	27.62
365.405	23.69
365.616	25.67
365.827	36.46
366.038	44.72
366.25	41.07
366.461	50.21
366.672	46.97
366.883	28.56
367.094	21.16
367.305	21.73
367.516	26.53
367.727	45.1
367.938	53.45
368.149	49.7
368.36	57.14
368.571	31.87
368.781	24.49
368.992	19.23
369.203	3.07
369.414	3.93
369.625	22.78
369.836	18.96
370.047	22.06
370.258	34.03
370.468	20.51
370.679	3.53
370.89	-3.73
371.101	-0.45
371.312	0.87
371.522	8.54
371.733	22.45
371.944	32.46
372.155	32.66
372.365	33.22
372.576	32.46
372.787	28.75
372.997	34.17
373.208	31.98
373.419	40.56
373.629	44.26
373.84	47.61
374.05	32.97
374.261	36.16
374.472	30.84
374.682	24.04
374.893	24.04
375.103	33.71
375.314	41.08
375.524	43.11
375.735	47.7
375.945	38.86
376.156	35.42
376.366	29.14
376.577	19.32
376.787	20.11
376.997	22.59
377.208	25.88
377.418	22.97
377.629	29.14
377.839	38.01
378.049	38.52
378.26	35.06
378.47	36.15
378.68	36.57
378.89	29.31
379.101	25.56
379.311	22.02
379.521	15.29
379.732	25.6
379.942	37.41
380.152	35.24
380.362	43.12
380.572	44.31
380.783	30.34
380.993	17.31
381.203	19.28
381.413	10.73
381.623	16.61
381.833	22.54
382.043	27.67
382.253	28.78
382.463	33.96
382.674	36.19
382.884	31.94
383.094	17.18
383.304	23.96
383.514	23.51
383.724	17.81
383.934	21.73
384.144	22.15
384.353	19.27
384.563	25.51
384.773	21.41
384.983	18.13
385.193	23.74
385.403	24.74
385.613	23.37
385.823	27.03
386.033	26.42
386.242	26.43
386.452	22.31
386.662	24.3
386.872	25.51
387.082	22.28
387.291	17.47
387.501	16.88
387.711	10.33
387.921	8.35
388.13	11.2
388.34	14.72
388.55	14.91
388.759	11.99
388.969	11.31
389.179	14.43
389.388	13.7
389.598	15.46
389.807	16.67
390.017	16.12
390.227	18.16
390.436	19.84
390.646	17.51
390.855	14.73
391.065	13.41
391.274	9.46
391.484	6.62
391.693	6.15
391.903	9.33
392.112	8.31
392.322	8.01
392.531	7.23
392.74	9.61
392.95	8.33
393.159	10.4
393.369	10.12
393.578	11.29
393.787	10.72
393.997	12.61
394.206	13.83
394.415	14.36
394.625	14.56
394.834	13.29
395.043	13.14
395.252	11.72
395.462	12.11
395.671	12.01
395.88	13.25
396.089	13.16
396.298	13.21
396.508	12.67
396.717	12.95
396.926	12.14
397.135	11.3
397.344	11.46
397.553	11.26
397.762	10.4
397.971	10.38
398.181	10.48
398.39	10.24
398.599	10.28
398.808	10.89
399.017	11.25
399.226	11.39
399.435	11.48
399.644	11.74
399.853	11.37
400.062	11.62
400.27	11.31
400.479	10.89
400.688	10.81
400.897	11.1
401.106	11.03
401.315	11.47
401.524	11.72
401.733	11.51
401.941	11.45
402.15	11.22
402.359	10.9
402.568	11.07
402.777	10.95
402.985	10.94
403.194	11.09
403.403	11.25
403.612	10.85
403.82	10.86
404.029	10.7
404.238	10.58
404.446	10.42
404.655	10.66
404.864	10.78
405.072	10.89
405.281	10.74
405.489	10.64
405.698	10.57
405.906	10.56
406.115	10.31
406.324	10.03
406.532	9.8
406.741	9.72
406.949	9.72
407.158	9.66
407.366	9.88
407.574	10.16
407.783	10.13
407.991	9.89
408.2	10.01
408.408	10
408.617	9.88
408.825	9.85
409.033	9.88
409.242	9.77
409.45	9.69
409.658	9.68
409.867	9.59
410.075	9.56
410.283	9.59
410.491	9.51
410.7	9.44
410.908	9.5
411.116	9.48
411.324	9.34
411.533	9.4
411.741	9.25
411.949	9.11
412.157	9.12
412.365	9.45
412.573	9.36
412.781	9.55
412.99	9.73
413.198	9.82
413.406	9.53
413.614	9.66
413.822	9.59
414.03	9.42
414.238	9.34
414.446	9.3
414.654	9.28
414.862	9.26
415.07	9.08
415.278	9.1
415.486	8.96
415.694	8.8
415.902	8.9
416.109	9.1
416.317	9.03
416.525	9.16
416.733	9.2
416.941	9.09
417.149	9.04
417.357	9.05
417.564	8.85
417.772	8.79
417.98	8.81
418.188	8.89
418.395	8.85
418.603	8.91
418.811	9.03
419.019	9.02
419.226	8.99
419.434	9.1
419.642	9.32
419.849	9.21
420.057	9.06
420.265	8.98
420.472	8.76
420.68	8.51
420.887	8.52
421.095	8.57
421.302	8.48
421.51	8.62
421.717	8.71
421.925	8.55
422.132	8.52
422.34	8.55
422.547	8.39
422.755	8.45
422.962	8.51
423.17	8.49
423.377	8.67
423.585	8.84
423.792	8.78
423.999	8.7
424.207	8.71
424.414	8.43
424.621	8.21
424.829	8.09
425.036	8.22
425.243	8.13
425.451	8.22
425.658	8.2
425.865	8.3
426.072	8.18
426.28	8.21
426.487	8.32
426.694	8.29
426.901	8.3
427.108	8.32
427.315	8.34
427.523	8.12
427.73	8.07
427.937	7.99
428.144	8.02
428.351	7.91
428.558	8.15
428.765	8.19
428.972	8.25
429.179	8.21
429.386	8.31
429.593	8.32
429.8	8.28
430.007	8.32
430.214	8.18
430.421	8.2
430.628	8.1
430.835	8.28
431.042	8.14
431.249	8.42
431.456	8.49
431.662	8.67
431.869	8.61
432.076	8.83
432.283	8.7
432.49	8.58
432.697	8.42
432.903	8.52
433.11	8.55
433.317	8.52
433.524	8.59
433.73	8.63
433.937	8.48
434.144	8.34
434.35	8.32
434.557	8.24
434.764	8.13
434.97	8.21
435.177	8.24
435.384	8.09
435.59	8.15
435.797	8.25
436.003	8.24
436.21	8.12
436.416	8.25
436.623	8.2
436.829	8.08
437.036	7.96
437.242	8.07
437.449	7.98
437.655	8.1
437.862	8.15
438.068	8.23
438.275	8.21
438.481	8.35
438.687	8.22
438.894	8.23
439.1	8.21
439.307	8.15
439.513	8.17
439.719	8.33
439.926	8.28
440.132	8.41
440.338	8.39
440.544	8.2
440.751	7.98
440.957	8.02
441.163	7.82
441.369	8.03
441.575	8.11
441.782	8.27
441.988	8.22
442.194	8.3
442.4	8.19
442.606	8.24
442.812	8.22
443.018	8.21
443.224	8.15
443.431	8.05
443.637	8.06
443.843	7.98
444.049	7.98
444.255	7.89
444.461	7.87
444.667	7.82
444.873	7.87
445.079	7.92
445.284	8.05
445.49	8.06
445.696	8.04
445.902	8.01
446.108	8
446.314	7.94
446.52	8.09
446.726	8.21
446.931	8.28
447.137	8.19
447.343	8.13
447.549	7.96
447.755	7.88
447.96	7.86
448.166	7.95
448.372	8.1
448.578	8.22
448.783	8.29
448.989	8.34
449.195	8.3
449.4	8.25
449.606	8.15
449.812	8.09
450.017	7.99
450.223	7.97
450.428	7.93
450.634	7.97
450.84	7.97
451.045	8.1
451.251	8.2
451.456	8.21
451.662	8.19
451.867	8.31
452.073	8.2
452.278	8.1
452.483	8.1
452.689	8.25
452.894	8.15
453.1	8.07
453.305	8.12
453.51	8.24
453.716	8.04
453.921	8.1
454.127	8.3
454.332	8.25
454.537	8.13
454.742	8.2
454.948	8.03
455.153	7.89
455.358	7.9
455.563	8.02
455.769	8.01
455.974	8.1
456.179	8.21
456.384	8.09
456.589	8.06
456.795	7.93
457	7.88
457.205	7.68
457.41	7.74
457.615	7.65
457.82	7.7
458.025	7.66
458.23	7.92
458.435	7.93
458.64	7.86
458.845	7.95
459.05	7.88
459.255	7.8
459.46	7.84
459.665	8
459.87	8
460.075	8.2
460.28	8.16
460.485	8.13
460.69	8.02
460.895	8.09
461.099	8.07
461.304	8.04
461.509	8.05
461.714	8.21
461.919	8.27
462.123	8.27
462.328	8.29
462.533	8.3
462.738	8.28
462.942	8.12
463.147	8.12
463.352	8.11
463.556	8.11
463.761	7.99
463.966	7.94
464.17	8.03
464.375	8.11
464.58	8.16
464.784	8.19
464.989	8.3
465.193	8.23
465.398	8.25
465.602	8.3
465.807	8.32
466.011	8.28
466.216	8.18
466.42	8.12
466.625	8.02
466.829	7.99
467.034	8.08
467.238	8.21
