Data from Ofav_PP_Phys_9GT46_Reflection_1.txt Node
Date: Tue Jul 27 19:03:22 EDT 2021
User: USUARIO
Spectrometer: FLMT01687
Trigger mode: 0
Integration Time (sec): 8.500000E-1
Scans to average: 2
Electric dark correction enabled: true
Nonlinearity correction enabled: false
Boxcar width: 2
XAxis mode: Wavelengths
Number of Pixels in Spectrum: 3648
>>>>>Begin Spectral Data<<<<<
179.494	-1053.33
179.716	-290.32
179.937	-252.55
180.158	-222.93
180.38	-254.2
180.601	-256.94
180.823	186.54
181.044	54.63
181.265	56.05
181.486	46.91
181.708	38.51
181.929	56.81
182.15	15.01
182.372	81.87
182.593	57.57
182.814	53.66
183.035	53.86
183.257	41.76
183.478	35.21
183.699	16.57
183.92	30.76
184.141	30.17
184.363	38.86
184.584	39.57
184.805	60.55
185.026	43.33
185.247	43.27
185.468	9.24
185.689	-7.26
185.91	-22.06
186.132	-20.95
186.353	8.1
186.574	39.56
186.795	57.62
187.016	70.68
187.237	68.39
187.458	39.6
187.679	32.38
187.9	33.21
188.121	23
188.342	14.34
188.563	34.03
188.784	40.45
189.005	31.46
189.226	36.49
189.447	34.95
189.667	32.28
189.888	21.77
190.109	22.88
190.33	23.25
190.551	28.14
190.772	26.01
190.993	28.95
191.214	27.91
191.434	28.71
191.655	36.06
191.876	30.91
192.097	16.63
192.318	21.71
192.538	16
192.759	23.91
192.98	23.46
193.201	38.07
193.421	46.14
193.642	20.4
193.863	5.81
194.083	20.66
194.304	7.25
194.525	-26.16
194.745	-45.63
194.966	-71.49
195.187	-101.33
195.407	-88.59
195.628	-52.2
195.848	-18.36
196.069	12.76
196.29	42.98
196.51	55.83
196.731	49.96
196.951	53.82
197.172	60.84
197.392	38.92
197.613	21.12
197.833	18.46
198.054	24.91
198.274	-9.99
198.495	-14.64
198.715	-12.91
198.936	-28.46
199.156	-8.23
199.377	38.15
199.597	25.42
199.817	12.79
200.038	-16.63
200.258	36.55
200.479	21.29
200.699	17.95
200.919	29.75
201.14	30.95
201.36	16.01
201.58	19.1
201.801	14.37
202.021	-2.56
202.241	15.02
202.461	12.29
202.682	9.29
202.902	-18.12
203.122	13.21
203.342	-6.65
203.563	14.38
203.783	12.31
204.003	19.25
204.223	-5.78
204.443	-12.35
204.663	-48.41
204.884	-35.77
205.104	7.14
205.324	46.39
205.544	42.44
205.764	33.35
205.984	34.54
206.204	13.04
206.424	-14.35
206.644	20.55
206.864	27.8
207.084	11.92
207.304	13.37
207.525	17.9
207.745	10.61
207.964	8.5
208.184	15.28
208.404	12.27
208.624	10.69
208.844	9.21
209.064	10.55
209.284	1.97
209.504	9.54
209.724	1.52
209.944	-34.07
210.164	-64.86
210.384	21.03
210.604	46.31
210.823	27.76
211.043	42.08
211.263	46.72
211.483	37.17
211.703	23.22
211.922	38.18
212.142	28.67
212.362	27.01
212.582	0.76
212.801	3.97
213.021	-33.35
213.241	-18.75
213.461	-37.04
213.68	-5.9
213.9	-0.48
214.12	16.21
214.339	14.71
214.559	18.2
214.779	18.9
214.998	15.17
215.218	2.05
215.438	8.33
215.657	14.12
215.877	12.58
216.096	17.03
216.316	27.71
216.535	33.23
216.755	43.78
216.974	47.82
217.194	53.63
217.413	63.44
217.633	45.41
217.852	31.19
218.072	20.61
218.291	0.48
218.511	-9.7
218.73	5.05
218.95	-4.52
219.169	8.59
219.389	-1.13
219.608	2.76
219.827	10.68
220.047	5.47
220.266	28.05
220.485	34.43
220.705	35.22
220.924	39.02
221.143	21.87
221.363	-4.37
221.582	11.14
221.801	9.17
222.021	6.52
222.24	25.86
222.459	19.18
222.678	9.68
222.897	8.36
223.117	24.02
223.336	9.45
223.555	25.68
223.774	10.59
223.993	4.13
224.213	-27.74
224.432	-11.96
224.651	-2.66
224.87	10.36
225.089	8.79
225.308	31.53
225.527	41.91
225.746	19.88
225.965	33.72
226.184	24.45
226.404	-1.18
226.623	-13.3
226.842	16.32
227.061	-1.36
227.28	27.19
227.499	24.62
227.718	29.72
227.936	22.75
228.155	39.44
228.374	31
228.593	41.38
228.812	46.35
229.031	38.85
229.25	40.11
229.469	29.17
229.688	-3.88
229.907	-36.24
230.125	-9.92
230.344	-25.58
230.563	2.23
230.782	13.95
231.001	13.53
231.22	7.84
231.438	0.82
231.657	-11.24
231.876	-29.01
232.095	-17.65
232.313	-4.19
232.532	0.1
232.751	1.91
232.969	13.25
233.188	3.46
233.407	-4.56
233.625	-8.96
233.844	-11.16
234.063	-10.79
234.281	14.87
234.5	12.63
234.719	35.28
234.937	32.5
235.156	46.71
235.374	29.94
235.593	36.55
235.811	29.85
236.03	46.35
236.249	19.11
236.467	28.66
236.686	27.51
236.904	20.98
237.123	6.03
237.341	18.05
237.559	19.62
237.778	14.55
237.996	29.84
238.215	49.83
238.433	54.39
238.652	54.11
238.87	66.02
239.088	57.08
239.307	40.99
239.525	18.22
239.743	12.35
239.962	-2.17
240.18	-2.12
240.398	-3.82
240.617	8.16
240.835	16.78
241.053	24.99
241.271	26.07
241.49	27.67
241.708	13.93
241.926	2.13
242.144	-3.39
242.363	-18.49
242.581	-37.33
242.799	-30.33
243.017	-46.41
243.235	-73.37
243.453	-42.31
243.672	-7.79
243.89	-10.25
244.108	-12.99
244.326	5.55
244.544	-8.09
244.762	-3.11
244.98	22.2
245.198	17.69
245.416	28.79
245.634	52.93
245.852	62.29
246.07	56.34
246.288	68.33
246.506	54.45
246.724	49.44
246.942	37.43
247.16	23.26
247.378	9.3
247.596	9.81
247.814	8.37
248.032	0.86
248.25	12.89
248.468	17.28
248.685	19.5
248.903	20.09
249.121	6.94
249.339	13.68
249.557	19.03
249.775	0.81
249.992	-8.84
250.21	1.49
250.428	-6.58
250.646	-17.41
250.863	21.15
251.081	17.38
251.299	26.64
251.517	16.27
251.734	36.83
251.952	-20.22
252.17	-5.21
252.387	-21.49
252.605	-15.35
252.823	-5.72
253.04	20.51
253.258	34.41
253.475	39.8
253.693	52.82
253.911	48.89
254.128	43.05
254.346	30.68
254.563	25.44
254.781	7.12
254.998	7.71
255.216	-13.79
255.433	-8.65
255.651	0.85
255.868	5.92
256.086	8.39
256.303	22.71
256.521	22.61
256.738	31.53
256.956	32.69
257.173	35.29
257.39	29.61
257.608	35.58
257.825	32.13
258.043	35.06
258.26	38.2
258.477	39.33
258.695	27.28
258.912	29.59
259.129	15.88
259.346	17.99
259.564	6.28
259.781	25.48
259.998	8.87
260.216	32.22
260.433	30.72
260.65	41.97
260.867	25.88
261.084	39.97
261.302	-3.04
261.519	-13.52
261.736	-28.33
261.953	-4.83
262.17	-5.98
262.387	5.61
262.604	15
262.822	34.6
263.039	31.64
263.256	34.99
263.473	48.45
263.69	48.75
263.907	21.37
264.124	18.71
264.341	17.41
264.558	31.63
264.775	27.12
264.992	41.43
265.209	39.43
265.426	40.85
265.643	23.77
265.86	22.16
266.077	2.81
266.294	15.05
266.51	23.04
266.727	28.87
266.944	27.37
267.161	29.17
267.378	9.3
267.595	3.73
267.812	-4.75
268.028	-11.22
268.245	0.53
268.462	13.67
268.679	2.61
268.896	6.82
269.112	8.47
269.329	-7.83
269.546	4.39
269.763	4.63
269.979	9.63
270.196	4.88
270.413	28.77
270.629	19.85
270.846	33.84
271.063	37.49
271.279	29.39
271.496	20.35
271.712	15.27
271.929	-26.44
272.146	-36.76
272.362	0.52
272.579	12.83
272.795	11.41
273.012	30
273.228	21.89
273.445	27.33
273.661	19.32
273.878	18.46
274.094	-2.62
274.311	16.97
274.527	15.31
274.744	9.14
274.96	17.42
275.177	7.39
275.393	-12.29
275.609	-16.75
275.826	-17.92
276.042	-18.08
276.259	26.91
276.475	31.13
276.691	25.95
276.908	46.24
277.124	45.12
277.34	42.83
277.557	45.09
277.773	52.95
277.989	42.83
278.205	31.1
278.422	35.29
278.638	34.17
278.854	42.29
279.07	37.34
279.286	48.53
279.503	31.06
279.719	40.49
279.935	35.2
280.151	38.92
280.367	34.81
280.583	44.14
280.799	36.55
281.016	38.46
281.232	22.28
281.448	32.89
281.664	26.33
281.88	30.87
282.096	14.92
282.312	23.31
282.528	13.34
282.744	-0.11
282.96	-12.64
283.176	6.86
283.392	20.8
283.608	45.31
283.824	46.33
284.04	41.66
284.256	43.38
284.471	42.08
284.687	18.73
284.903	25.24
285.119	34.58
285.335	24.91
285.551	11.92
285.767	26.26
285.982	3.18
286.198	-2.11
286.414	-11.12
286.63	3.97
286.846	-1.35
287.061	4.53
287.277	9.44
287.493	1.99
287.709	-10.48
287.924	-3.44
288.14	9.33
288.356	26.92
288.571	40.19
288.787	38.58
289.003	34.37
289.218	28.86
289.434	-5.8
289.65	0.81
289.865	1.93
290.081	9.7
290.296	-7.07
290.512	-8.82
290.727	-6.6
290.943	-17.93
291.159	-24.8
291.374	4.21
291.59	19.64
291.805	17.97
292.021	28.77
292.236	35.71
292.451	18.03
292.667	18.44
292.882	6.6
293.098	-2.47
293.313	-7.16
293.529	11.71
293.744	13.95
293.959	33.38
294.175	43.78
294.39	37.78
294.605	37.14
294.821	36.96
295.036	24.46
295.251	11.38
295.467	6.89
295.682	-21.74
295.897	-22.13
296.112	-15.1
296.328	-4.32
296.543	3.13
296.758	24.89
296.973	37.84
297.188	49.98
297.404	37.76
297.619	38.73
297.834	43.66
298.049	37.75
298.264	15.24
298.479	17.79
298.694	3.78
298.909	-5.94
299.125	-8.79
299.34	-12.89
299.555	4.33
299.77	11.11
299.985	24.01
300.2	18.17
300.415	23.52
300.63	-3.97
300.845	14.05
301.06	-8.49
301.275	2.59
301.49	2.85
301.704	18.07
301.919	1.94
302.134	11.65
302.349	30.68
302.564	28.47
302.779	24.99
302.994	20.09
303.209	25.94
303.423	7.97
303.638	-2.5
303.853	0.37
304.068	15.03
304.283	5.95
304.497	0.93
304.712	14.25
304.927	11.98
305.142	15.31
305.356	7.29
305.571	15.87
305.786	28.27
306	2.9
306.215	-6.38
306.43	5.24
306.644	20.44
306.859	14.11
307.074	46.74
307.288	46.77
307.503	34.89
307.717	18.62
307.932	14.04
308.147	14.07
308.361	15.45
308.576	12.01
308.79	13.26
309.005	3.34
309.219	-11.68
309.434	-12.88
309.648	-4.72
309.863	-12.32
310.077	7.47
310.292	21.51
310.506	11.2
310.72	13.46
310.935	3.66
311.149	2.12
311.364	-14.95
311.578	20.6
311.792	19.39
312.007	26.63
312.221	21.99
312.435	8.25
312.649	7.91
312.864	2.96
313.078	-4.04
313.292	-4.18
313.507	11.19
313.721	20.7
313.935	23.61
314.149	28.27
314.363	19.94
314.578	26.43
314.792	22.92
315.006	17.44
315.22	21.51
315.434	34.37
315.648	32.48
315.862	16.74
316.077	25.04
316.291	28.77
316.505	16.4
316.719	5.94
316.933	17.76
317.147	4.1
317.361	-6.62
317.575	-22.56
317.789	-24.52
318.003	-46.38
318.217	-10.48
318.431	-24.43
318.645	-15.73
318.859	-11.46
319.073	-1.31
319.287	-13.88
319.5	-3.51
319.714	3.43
319.928	7.03
320.142	11.22
320.356	12.08
320.57	19.31
320.784	20.23
320.997	27.44
321.211	24.26
321.425	10.25
321.639	-3.59
321.853	-6.43
322.066	-2.95
322.28	-11.68
322.494	-4.35
322.707	-0.06
322.921	2.52
323.135	-12.37
323.349	6.63
323.562	10.42
323.776	14.8
323.989	-0.38
324.203	5.06
324.417	-5.49
324.63	11.15
324.844	11.63
325.057	23.77
325.271	22.2
325.485	25.98
325.698	37.24
325.912	35.38
326.125	37.37
326.339	36.37
326.552	34.42
326.766	24.99
326.979	33.22
327.193	27.24
327.406	20.07
327.619	22.77
327.833	0.81
328.046	-1.33
328.26	1.2
328.473	-12.46
328.686	-9.95
328.9	3.44
329.113	1.97
329.326	-26.39
329.54	6.25
329.753	-13.42
329.966	-4.9
330.179	-29.29
330.393	12.01
330.606	-9.74
330.819	-3.36
331.032	-18.54
331.246	6.4
331.459	4.07
331.672	14.63
331.885	7.94
332.098	28.17
332.311	30.77
332.525	14.87
332.738	8.79
332.951	15.43
333.164	-1.93
333.377	-20.1
333.59	-0.85
333.803	5.33
334.016	6.28
334.229	10.22
334.442	25.17
334.655	33.43
334.868	34.28
335.081	30.19
335.294	28.49
335.507	26.31
335.72	19.73
335.933	5.66
336.146	12.22
336.359	14.41
336.572	21.5
336.785	-7.8
336.997	10.93
337.21	24.05
337.423	42.82
337.636	18.31
337.849	36.29
338.062	37.14
338.274	29.82
338.487	27.31
338.7	24.71
338.913	30.88
339.125	17.2
339.338	-2.44
339.551	-9.74
339.763	-8.64
339.976	-9.05
340.189	-5.28
340.402	-3.1
340.614	-5.56
340.827	3.72
341.039	-3.18
341.252	-6.72
341.465	-2.66
341.677	-8.07
341.89	-27.48
342.102	-5.93
342.315	15.65
342.527	21.12
342.74	34.39
342.952	32.22
343.165	27.02
343.377	26.73
343.59	21.84
343.802	15.17
344.015	31.69
344.227	45.94
344.44	35.09
344.652	29.16
344.864	11.74
345.077	8.71
345.289	0.39
345.502	-1.03
345.714	10.58
345.926	13.54
346.139	6.65
346.351	13.81
346.563	13.46
346.775	5.22
346.988	8.86
347.2	18.79
347.412	16.59
347.624	19.86
347.837	16.89
348.049	14.06
348.261	6.58
348.473	13.14
348.685	16.59
348.897	25.03
349.11	19.88
349.322	20.92
349.534	14.96
349.746	20.83
349.958	13.86
350.17	23.59
350.382	19.06
350.594	-5.14
350.806	-7.73
351.018	-3.93
351.23	-14.9
351.442	-13.63
351.654	22.38
351.866	18.87
352.078	29.85
352.29	27.21
352.502	24.95
352.714	20.14
352.926	17.54
353.138	19.88
353.35	17.62
353.561	13.28
353.773	14.6
353.985	-2.66
354.197	-20.01
354.409	-1
354.621	10.05
354.832	15.39
355.044	24.96
355.256	28.91
355.468	24.84
355.679	23.19
355.891	24.19
356.103	36.21
356.314	44.61
356.526	43.06
356.738	40.49
356.949	32.3
357.161	30.66
357.373	21.99
357.584	18.69
357.796	19.55
358.008	22.31
358.219	20.3
358.431	15.69
358.642	22.19
358.854	24.26
359.065	14.73
359.277	12.2
359.488	16.79
359.7	16.66
359.911	20.25
360.123	25.73
360.334	23.82
360.546	14.39
360.757	9.69
360.969	1.69
361.18	-4.28
361.391	-4.61
361.603	8
361.814	8.69
362.025	18.05
362.237	23.01
362.448	22.18
362.659	19
362.871	23.69
363.082	6.55
363.293	13.32
363.504	-9.5
363.716	-4.56
363.927	-23.04
364.138	1.21
364.349	-4.66
364.56	5.21
364.772	4.5
364.983	9.71
365.194	-1.42
365.405	1.7
365.616	14.46
365.827	18.38
366.038	21.96
366.25	16.72
366.461	20.99
366.672	14.11
366.883	15.76
367.094	10.63
367.305	4.64
367.516	0.68
367.727	17.86
367.938	16.66
368.149	20.49
368.36	27.89
368.571	11.86
368.781	6.21
368.992	-13.8
369.203	-22.6
369.414	-18.76
369.625	-10.08
369.836	-11.08
370.047	3.46
370.258	12.3
370.468	15.62
370.679	7.65
370.89	-2.67
371.101	-7.19
371.312	0.52
371.522	-5.51
371.733	14.15
371.944	18.48
372.155	18.12
372.365	3.53
372.576	9.17
372.787	2.4
372.997	9.52
373.208	22.52
373.419	29.13
373.629	29.38
373.84	23.22
374.05	16.17
374.261	8.72
374.472	5.81
374.682	4.58
374.893	12.34
375.103	8.57
375.314	10.95
375.524	10.61
375.735	10.21
375.945	12.78
376.156	29.18
376.366	27.49
376.577	29.94
376.787	23.35
376.997	26.41
377.208	20.22
377.418	15.76
377.629	13.59
377.839	29.3
378.049	19.9
378.26	17.14
378.47	19.69
378.68	23.45
378.89	11.02
379.101	6.27
379.311	-1.01
379.521	-2.34
379.732	3.08
379.942	15.41
380.152	14.09
380.362	26.84
380.572	23.28
380.783	11.88
380.993	1.92
381.203	0.53
381.413	-14.43
381.623	-7.85
381.833	0.95
382.043	8.54
382.253	13.27
382.463	13.03
382.674	24.24
382.884	11.06
383.094	6.67
383.304	8.32
383.514	15.07
383.724	5.85
383.934	8.11
384.144	1.29
384.353	-2.85
384.563	0.83
384.773	3.53
384.983	4.44
385.193	11.21
385.403	14.59
385.613	13.32
385.823	10.76
386.033	10.58
386.242	15.88
386.452	11.84
386.662	12.56
386.872	13.94
387.082	12.82
387.291	4.38
387.501	6.75
387.711	3.15
387.921	1.88
388.13	4.88
388.34	4.87
388.55	7.43
388.759	7.65
388.969	7.85
389.179	8.09
389.388	8.58
389.598	5.84
389.807	5.02
390.017	2.44
390.227	2.43
390.436	2.56
390.646	1.55
390.855	2.14
391.065	1.18
391.274	0.27
391.484	0.85
391.693	2.32
391.903	1.43
392.112	2.58
392.322	2.58
392.531	1.73
392.74	2.79
392.95	4.38
393.159	5.84
393.369	5.63
393.578	5.66
393.787	4.3
393.997	3.72
394.206	4.05
394.415	3.36
394.625	4.09
394.834	3.74
395.043	4.03
395.252	3.46
395.462	4.59
395.671	4.22
395.88	6.04
396.089	6.35
396.298	5.87
396.508	5.87
396.717	5.69
396.926	4.41
397.135	3.79
397.344	4
397.553	3.73
397.762	3.86
397.971	4.22
398.181	4.15
398.39	3.93
398.599	3.78
398.808	3.74
399.017	4
399.226	4.01
399.435	4.18
399.644	4.55
399.853	4.66
400.062	4.73
400.27	4.51
400.479	4.24
400.688	4.08
400.897	4.18
401.106	4.05
401.315	4.53
401.524	4.91
401.733	4.84
401.941	4.92
402.15	4.72
402.359	4.5
402.568	4.24
402.777	4.25
402.985	3.85
403.194	4.06
403.403	4.04
403.612	3.86
403.82	3.78
404.029	3.92
404.238	3.9
404.446	4.01
404.655	4.22
404.864	4.29
405.072	4.44
405.281	4.33
405.489	4.14
405.698	4.16
405.906	4.12
406.115	3.85
406.324	3.67
406.532	3.61
406.741	3.67
406.949	3.72
407.158	3.77
407.366	3.92
407.574	4.05
407.783	3.9
407.991	3.8
408.2	3.84
408.408	3.9
408.617	3.85
408.825	4
409.033	4
409.242	4.04
409.45	3.96
409.658	4.09
409.867	4.01
410.075	3.95
410.283	3.91
410.491	3.91
410.7	3.72
410.908	3.64
411.116	3.72
411.324	3.7
411.533	3.56
411.741	3.48
411.949	3.43
412.157	3.51
412.365	3.64
412.573	3.64
412.781	3.75
412.99	3.87
413.198	3.83
413.406	3.72
413.614	3.87
413.822	3.9
414.03	3.82
414.238	3.77
414.446	3.68
414.654	3.69
414.862	3.68
415.07	3.51
415.278	3.55
415.486	3.54
415.694	3.43
415.902	3.5
416.109	3.74
416.317	3.71
416.525	3.68
416.733	3.62
416.941	3.51
417.149	3.44
417.357	3.51
417.564	3.34
417.772	3.39
417.98	3.41
418.188	3.44
418.395	3.4
418.603	3.57
418.811	3.65
419.019	3.59
419.226	3.5
419.434	3.5
419.642	3.58
419.849	3.41
420.057	3.42
420.265	3.54
420.472	3.33
420.68	3.3
420.887	3.42
421.095	3.41
421.302	3.27
421.51	3.37
421.717	3.35
421.925	3.22
422.132	3.23
422.34	3.31
422.547	3.33
422.755	3.39
422.962	3.39
423.17	3.48
423.377	3.39
423.585	3.37
423.792	3.29
423.999	3.26
424.207	3.18
424.414	3.15
424.621	3.04
424.829	3.15
425.036	3.16
425.243	3.04
425.451	3.1
425.658	3.05
425.865	3.07
426.072	2.97
426.28	3.08
426.487	3.01
426.694	3.09
426.901	2.96
427.108	3.07
427.315	3.02
427.523	2.79
427.73	2.78
427.937	2.72
428.144	2.8
428.351	2.66
428.558	3.15
428.765	3.13
428.972	3.29
429.179	3.13
429.386	3.25
429.593	2.95
429.8	3.07
430.007	2.9
430.214	3
430.421	3.04
430.628	3.07
430.835	3.06
431.042	3.07
431.249	3.08
431.456	3.05
431.662	3.13
431.869	3.07
432.076	3.13
432.283	3.16
432.49	3.15
432.697	3.13
432.903	3.24
433.11	3.44
433.317	3.3
433.524	3.16
433.73	3.12
433.937	2.97
434.144	2.77
434.35	2.87
434.557	2.95
434.764	3.04
434.97	3
435.177	2.97
435.384	2.84
435.59	3.04
435.797	2.91
436.003	3.04
436.21	2.87
436.416	2.9
436.623	2.62
436.829	2.57
437.036	2.48
437.242	2.69
437.449	2.68
437.655	2.87
437.862	3.03
438.068	3.03
438.275	3.06
438.481	3.06
438.687	3.08
438.894	3
439.1	2.94
439.307	2.83
439.513	2.82
439.719	2.87
439.926	2.72
440.132	2.83
440.338	2.88
440.544	2.84
440.751	2.7
440.957	2.9
441.163	2.78
441.369	2.79
441.575	2.79
441.782	2.85
441.988	2.78
442.194	2.91
442.4	2.95
442.606	3.07
442.812	3.11
443.018	3.17
443.224	3.03
443.431	2.95
443.637	2.98
443.843	2.81
444.049	2.8
444.255	2.8
444.461	2.72
444.667	2.6
444.873	2.69
445.079	2.72
445.284	2.75
445.49	2.77
445.696	2.8
445.902	2.8
446.108	2.72
446.314	2.74
446.52	2.86
446.726	2.84
446.931	2.88
447.137	2.91
447.343	2.81
447.549	2.62
447.755	2.64
447.96	2.54
448.166	2.52
448.372	2.62
448.578	2.73
448.783	2.71
448.989	2.84
449.195	2.84
449.4	2.85
449.606	2.84
449.812	2.92
450.017	2.8
450.223	2.83
450.428	2.79
450.634	2.77
450.84	2.71
451.045	2.86
451.251	2.88
451.456	2.91
451.662	2.95
451.867	3.05
452.073	2.91
452.278	2.81
452.483	2.82
452.689	2.76
452.894	2.72
453.1	2.77
453.305	2.8
453.51	2.83
453.716	2.78
453.921	2.76
454.127	2.69
454.332	2.61
454.537	2.65
454.742	2.67
454.948	2.6
455.153	2.65
455.358	2.73
455.563	2.61
455.769	2.66
455.974	2.59
456.179	2.53
456.384	2.47
456.589	2.51
456.795	2.4
457	2.52
457.205	2.49
457.41	2.52
457.615	2.47
457.82	2.52
458.025	2.4
458.23	2.5
458.435	2.5
458.64	2.38
458.845	2.43
459.05	2.45
459.255	2.51
459.46	2.48
459.665	2.63
459.87	2.61
460.075	2.7
460.28	2.64
460.485	2.62
460.69	2.53
460.895	2.56
461.099	2.57
461.304	2.55
461.509	2.55
461.714	2.64
461.919	2.68
462.123	2.74
462.328	2.82
462.533	2.85
462.738	2.83
462.942	2.71
463.147	2.61
463.352	2.49
463.556	2.48
463.761	2.52
463.966	2.5
464.17	2.56
464.375	2.64
464.58	2.73
464.784	2.7
464.989	2.76
465.193	2.72
465.398	2.71
465.602	2.63
465.807	2.53
466.011	2.48
466.216	2.49
466.42	2.53
466.625	2.58
466.829	2.67
467.034	2.74
467.238	2.79
467.443	2.82
467.647	2.72
467.851	2.7
468.056	2.67
468.26	2.64
468.464	2.55
468.669	2.68
468.873	2.67
469.077	2.62
