Data from Ofav_PP_Phys_9IR44_Reflection_1.txt Node
Date: Tue Jul 27 19:05:37 EDT 2021
User: USUARIO
Spectrometer: FLMT01687
Trigger mode: 0
Integration Time (sec): 8.500000E-1
Scans to average: 2
Electric dark correction enabled: true
Nonlinearity correction enabled: false
Boxcar width: 2
XAxis mode: Wavelengths
Number of Pixels in Spectrum: 3648
>>>>>Begin Spectral Data<<<<<
179.494	-1285.19
179.716	-407.53
179.937	-304.18
180.158	-301.46
180.38	-331.62
180.601	-338.67
180.823	178.63
181.044	81.79
181.265	29.13
181.486	-33.06
181.708	-73.78
181.929	162.66
182.15	85.26
182.372	81
182.593	46.13
182.814	60.92
183.035	47.8
183.257	39.09
183.478	35.74
183.699	32.09
183.92	34.56
184.141	51.41
184.363	69.75
184.584	88.58
184.805	99.96
185.026	64.87
185.247	55.11
185.468	42.23
185.689	19.53
185.91	-5.1
186.132	-8.17
186.353	11.18
186.574	-7.19
186.795	-10.42
187.016	14.36
187.237	25.31
187.458	26.59
187.679	41.01
187.9	41.44
188.121	29.3
188.342	31.02
188.563	39.26
188.784	68.3
189.005	71.11
189.226	69.37
189.447	59.61
189.667	58.2
189.888	53.77
190.109	38.72
190.33	52.46
190.551	30.77
190.772	31.36
190.993	16.59
191.214	27.23
191.434	32.91
191.655	66.13
191.876	45.31
192.097	48.32
192.318	57.2
192.538	39.77
192.759	32.83
192.98	48.79
193.201	48.14
193.421	27.68
193.642	16.97
193.863	6.07
194.083	4.75
194.304	-8.23
194.525	-19.67
194.745	-56.58
194.966	-120.3
195.187	-137.94
195.407	-101.1
195.628	-18.49
195.848	42.05
196.069	67.6
196.29	136.69
196.51	117.17
196.731	61.36
196.951	40.05
197.172	51.06
197.392	58.95
197.613	78.1
197.833	65.16
198.054	78.28
198.274	46.06
198.495	30.03
198.715	20.48
198.936	8.16
199.156	29.19
199.377	47.59
199.597	0.66
199.817	11.96
200.038	-36.3
200.258	-41.56
200.479	18.8
200.699	28.88
200.919	10.82
201.14	34.91
201.36	26.46
201.58	9.95
201.801	2.77
202.021	23.39
202.241	7.09
202.461	11.37
202.682	22.38
202.902	17.33
203.122	14.66
203.342	13.03
203.563	32.49
203.783	29.61
204.003	24.14
204.223	11.97
204.443	10.22
204.663	-11.93
204.884	-18.39
205.104	6.53
205.324	18.62
205.544	10.4
205.764	-0.37
205.984	3.13
206.204	-13.18
206.424	-20.1
206.644	21.93
206.864	44.77
207.084	43.88
207.304	44.75
207.525	49
207.745	56.34
207.964	56.19
208.184	41.81
208.404	47.9
208.624	34
208.844	22.91
209.064	22.49
209.284	24.91
209.504	20.87
209.724	-1.91
209.944	-39.75
210.164	-42.29
210.384	-10.64
210.604	-51.83
210.823	37.89
211.043	43
211.263	32.79
211.483	44.58
211.703	50.74
211.922	25.21
212.142	14.11
212.362	-3.78
212.582	-48.87
212.801	-21.86
213.021	-35.28
213.241	2.91
213.461	-12.58
213.68	31.48
213.9	39.42
214.12	44.5
214.339	16.19
214.559	24.91
214.779	10.34
214.998	5.77
215.218	4.11
215.438	30.04
215.657	31.13
215.877	28.74
216.096	39.78
216.316	37.79
216.535	18.77
216.755	17.4
216.974	39.14
217.194	42.95
217.413	43
217.633	40.17
217.852	33
218.072	7.08
218.291	-15.26
218.511	-17.17
218.73	-7.6
218.95	-7.96
219.169	3.09
219.389	-1.21
219.608	16.08
219.827	34.19
220.047	69.4
220.266	63.78
220.485	56.4
220.705	58.26
220.924	40.91
221.143	38.94
221.363	24.52
221.582	22.5
221.801	16.58
222.021	32.7
222.24	31.82
222.459	33.85
222.678	67.22
222.897	66.13
223.117	85.39
223.336	78.73
223.555	48.6
223.774	34.32
223.993	29.64
224.213	6.76
224.432	-5.5
224.651	18.22
224.87	5.82
225.089	4.29
225.308	-0.77
225.527	12.55
225.746	-7.56
225.965	14.71
226.184	18.17
226.404	24.79
226.623	36.45
226.842	39.48
227.061	29.98
227.28	23.82
227.499	25.83
227.718	4.75
227.936	1.06
228.155	11.37
228.374	21.24
228.593	9.27
228.812	35.61
229.031	27.43
229.25	28.08
229.469	23.16
229.688	32.18
229.907	-31.74
230.125	9.58
230.344	15.56
230.563	18.82
230.782	34.77
231.001	49.7
231.22	46.61
231.438	33.68
231.657	27.59
231.876	25.86
232.095	26.29
232.313	30.66
232.532	36.34
232.751	46.58
232.969	30.25
233.188	39.01
233.407	28.66
233.625	43.88
233.844	41.56
234.063	44.16
234.281	30.59
234.5	27.31
234.719	31.99
234.937	12
235.156	9.34
235.374	22.6
235.593	34.3
235.811	15.24
236.03	30.67
236.249	41.07
236.467	34.11
236.686	15.5
236.904	29.09
237.123	22.45
237.341	17.6
237.559	18.81
237.778	25.79
237.996	13.54
238.215	22.26
238.433	30.49
238.652	34.64
238.87	38.48
239.088	31.37
239.307	28.93
239.525	3.56
239.743	-18.94
239.962	-30.13
240.18	-3.75
240.398	-2.53
240.617	7.74
240.835	42.83
241.053	71.8
241.271	69.68
241.49	61.25
241.708	57.6
241.926	24.5
242.144	-23.58
242.363	-19.09
242.581	-7.79
242.799	1.05
243.017	-2.12
243.235	-7.48
243.453	-13.68
243.672	-0.41
243.89	-8.35
244.108	-8.71
244.326	18
244.544	-2.87
244.762	-7.56
244.98	3.05
245.198	-11.39
245.416	-11.54
245.634	8.26
245.852	1.63
246.07	19.01
246.288	29.34
246.506	24.87
246.724	37.43
246.942	30.67
247.16	15.52
247.378	24.93
247.596	24.93
247.814	14.14
248.032	18.47
248.25	32.21
248.468	33.54
248.685	38.38
248.903	41.58
249.121	44.66
249.339	29.96
249.557	32.42
249.775	20.47
249.992	4.64
250.21	0.64
250.428	-4.43
250.646	-15.14
250.863	-16.86
251.081	-12.72
251.299	-9.45
251.517	-5.75
251.734	-8.82
251.952	-15.05
252.17	-5.83
252.387	-22.08
252.605	-12.35
252.823	1.65
253.04	21.39
253.258	29.42
253.475	28.15
253.693	37.42
253.911	45.62
254.128	35.36
254.346	23.85
254.563	31.87
254.781	18.99
254.998	21.38
255.216	-5.17
255.433	4.7
255.651	11.66
255.868	15.8
256.086	5.84
256.303	26.22
256.521	35.46
256.738	27.25
256.956	25.07
257.173	26.43
257.39	17.74
257.608	16.88
257.825	28.03
258.043	33.87
258.26	36.7
258.477	41.01
258.695	30.66
258.912	23.15
259.129	22.27
259.346	19.14
259.564	13.07
259.781	39.55
259.998	27.55
260.216	34.29
260.433	36.2
260.65	47.67
260.867	27.38
261.084	35.54
261.302	18.08
261.519	3.24
261.736	-13.86
261.953	0.32
262.17	-1.2
262.387	4.71
262.604	20.88
262.822	22.08
263.039	14.19
263.256	25.41
263.473	32.98
263.69	35.58
263.907	25.21
264.124	43.23
264.341	40.55
264.558	35.43
264.775	26.48
264.992	38.59
265.209	31.5
265.426	24.61
265.643	21.49
265.86	13.59
266.077	7.25
266.294	28.62
266.51	36.64
266.727	40.15
266.944	50.41
267.161	51.96
267.378	26.2
267.595	32.12
267.812	31.61
268.028	34.55
268.245	46.57
268.462	70.44
268.679	65.67
268.896	57.23
269.112	40.28
269.329	34.73
269.546	31.62
269.763	15.34
269.979	12.24
270.196	18.22
270.413	23.62
270.629	20.89
270.846	42.29
271.063	25
271.279	18.4
271.496	28.06
271.712	4.63
271.929	-18.7
272.146	-32.08
272.362	-9.18
272.579	-7.87
272.795	19.57
273.012	24.36
273.228	40.7
273.445	42.82
273.661	52.68
273.878	33.53
274.094	24.17
274.311	23.38
274.527	21.4
274.744	1.37
274.96	-5.77
275.177	-1.55
275.393	-7.63
275.609	-5.72
275.826	-4.73
276.042	6.01
276.259	22.69
276.475	12.2
276.691	0.47
276.908	9.86
277.124	19.45
277.34	13.79
277.557	11.43
277.773	27.82
277.989	28.03
278.205	27.69
278.422	19.04
278.638	19.98
278.854	24.68
279.07	23.1
279.286	28.99
279.503	51.29
279.719	55.51
279.935	61.93
280.151	70.77
280.367	58.13
280.583	50.12
280.799	56.47
281.016	43.12
281.232	28.75
281.448	26.4
281.664	20.32
281.88	12.12
282.096	8.8
282.312	19.86
282.528	23.04
282.744	13.86
282.96	24.9
283.176	37.7
283.392	46.25
283.608	48.24
283.824	48.86
284.04	9.43
284.256	17.2
284.471	-3.69
284.687	0.63
284.903	-5.41
285.119	17.65
285.335	23.37
285.551	21.88
285.767	31.7
285.982	33.64
286.198	37.87
286.414	9.92
286.63	20.5
286.846	-2.53
287.061	2.77
287.277	-7.16
287.493	-2.85
287.709	11.68
287.924	22.82
288.14	34.9
288.356	57.65
288.571	70.05
288.787	49.92
289.003	48.29
289.218	43.54
289.434	31.75
289.65	32.85
289.865	29.23
290.081	33.38
290.296	20.87
290.512	21.88
290.727	19.74
290.943	36.08
291.159	45.63
291.374	34.78
291.59	39.29
291.805	34.21
292.021	27.48
292.236	24.58
292.451	22.77
292.667	26.93
292.882	24.75
293.098	21.63
293.313	22.65
293.529	41.02
293.744	29.04
293.959	39.83
294.175	43.85
294.39	42.21
294.605	41.31
294.821	46.36
295.036	27.01
295.251	21.71
295.467	33.26
295.682	12.45
295.897	22.04
296.112	27.39
296.328	27.26
296.543	18.11
296.758	30.36
296.973	20.92
297.188	36.94
297.404	31.6
297.619	33.93
297.834	25.44
298.049	18.85
298.264	5.72
298.479	13.8
298.694	8.26
298.909	9.77
299.125	21.9
299.34	29.37
299.555	33.66
299.77	28.02
299.985	35.47
300.2	30.12
300.415	26.65
300.63	17.57
300.845	18.94
301.06	9.26
301.275	0.92
301.49	0.44
301.704	8.71
301.919	16.56
302.134	31.83
302.349	40.08
302.564	33.86
302.779	30.05
302.994	33.81
303.209	32.97
303.423	21.21
303.638	18.83
303.853	2.71
304.068	17.77
304.283	5.03
304.497	13.33
304.712	20
304.927	27.3
305.142	14.56
305.356	0.19
305.571	16.89
305.786	30.12
306	20.9
306.215	13.24
306.43	34.56
306.644	27.75
306.859	17.74
307.074	31.12
307.288	39.02
307.503	26.99
307.717	-0.26
307.932	-0.92
308.147	0.43
308.361	-4.31
308.576	12.69
308.79	24.55
309.005	15.48
309.219	-1.95
309.434	2.28
309.648	-12.46
309.863	-11.11
310.077	1.43
310.292	16.86
310.506	4.49
310.72	8.81
310.935	19.52
311.149	13.66
311.364	6.29
311.578	18.61
311.792	8.31
312.007	5.35
312.221	18.23
312.435	5.76
312.649	4.93
312.864	11.2
313.078	17.69
313.292	22.2
313.507	38.36
313.721	62.61
313.935	45.64
314.149	43.55
314.363	39.16
314.578	39.46
314.792	25.18
315.006	27.03
315.22	19.14
315.434	5.98
315.648	4.73
315.862	6.97
316.077	7.7
316.291	11.37
316.505	11.33
316.719	22.99
316.933	25.9
317.147	14.42
317.361	6.04
317.575	13.15
317.789	5.46
318.003	16.29
318.217	38.13
318.431	41.51
318.645	39.3
318.859	47.01
319.073	9.24
319.287	-9.52
319.5	-17.24
319.714	-18.4
319.928	-20.83
320.142	-13.52
320.356	9.38
320.57	30.62
320.784	31.66
320.997	42.07
321.211	50.15
321.425	33.6
321.639	18.01
321.853	23.38
322.066	10.16
322.28	-3.33
322.494	-1.88
322.707	10.9
322.921	11.86
323.135	4.75
323.349	20.26
323.562	34.02
323.776	23.64
323.989	-0.74
324.203	7.47
324.417	6.8
324.63	5.39
324.844	24.72
325.057	46.57
325.271	56.25
325.485	42.36
325.698	50.49
325.912	39.3
326.125	45.77
326.339	47.37
326.552	42.8
326.766	25.65
326.979	24.97
327.193	18.17
327.406	25.11
327.619	23.95
327.833	29.04
328.046	35.39
328.26	31.82
328.473	14.36
328.686	25.08
328.9	30.89
329.113	24.15
329.326	15.27
329.54	18.88
329.753	2.95
329.966	16.72
330.179	5.38
330.393	36.77
330.606	32.68
330.819	47.24
331.032	27.42
331.246	33.96
331.459	27.59
331.672	25.89
331.885	5.63
332.098	39.79
332.311	45.17
332.525	33.62
332.738	30.47
332.951	40.79
333.164	24.54
333.377	12.78
333.59	24.04
333.803	33.77
334.016	26.25
334.229	20.31
334.442	33.37
334.655	30.01
334.868	23.03
335.081	40.35
335.294	45.17
335.507	46.69
335.72	45.56
335.933	35.63
336.146	13.17
336.359	3.8
336.572	6.04
336.785	-0.78
336.997	13.47
337.21	35.76
337.423	39.69
337.636	14.66
337.849	9.89
338.062	7.25
338.274	-6.87
338.487	10.42
338.7	9.64
338.913	11.1
339.125	12.09
339.338	4.73
339.551	-20.01
339.763	-3.16
339.976	7.54
340.189	10.26
340.402	19.49
340.614	23.55
340.827	25.95
341.039	9.49
341.252	-8.71
341.465	-37.28
341.677	-27.84
341.89	-34.07
342.102	4.03
342.315	25.08
342.527	43.47
342.74	33.71
342.952	28.13
343.165	33.92
343.377	27.63
343.59	15.85
343.802	18.44
344.015	21.05
344.227	-1.74
344.44	-36.51
344.652	-21.52
344.864	-16.97
345.077	-2.35
345.289	6.36
345.502	19.4
345.714	25.69
345.926	12.75
346.139	17.23
346.351	15.2
346.563	9.19
346.775	-2.5
346.988	3.68
347.2	-15.42
347.412	0.22
347.624	9.99
347.837	1.38
348.049	13.66
348.261	29.35
348.473	23.06
348.685	24.19
348.897	36.26
349.11	32.11
349.322	21.34
349.534	10.51
349.746	17.43
349.958	19.65
350.17	22.06
350.382	18.59
350.594	6.7
350.806	15.15
351.018	5.57
351.23	-13.27
351.442	-21.87
351.654	6.98
351.866	-4.15
352.078	2.44
352.29	7.19
352.502	19.36
352.714	20.21
352.926	21.49
353.138	32.72
353.35	41.57
353.561	36.48
353.773	32.55
353.985	28.52
354.197	14.76
354.409	16.16
354.621	15.8
354.832	21.34
355.044	14.53
355.256	24.05
355.468	30.77
355.679	31.88
355.891	33.99
356.103	41.83
356.314	34.84
356.526	33.16
356.738	31.39
356.949	27.82
357.161	31.75
357.373	31.74
357.584	26.12
357.796	42.02
358.008	42.56
358.219	42.53
358.431	38.34
358.642	32.33
358.854	28.79
359.065	25.59
359.277	31.41
359.488	38.59
359.7	42.19
359.911	38.73
360.123	39.5
360.334	27.87
360.546	17.77
360.757	8.35
360.969	-12.86
361.18	-14.16
361.391	-5.09
361.603	11.61
361.814	11.65
362.025	38.82
362.237	36.28
362.448	32.86
362.659	22.3
362.871	32.15
363.082	16.41
363.293	22.37
363.504	22.81
363.716	26.78
363.927	27.96
364.138	25
364.349	17.91
364.56	15.41
364.772	13.72
364.983	13.13
365.194	6.27
365.405	9.11
365.616	11.78
365.827	14.39
366.038	21.04
366.25	33.33
366.461	39.7
366.672	35.33
366.883	22.48
367.094	29.38
367.305	10.92
367.516	3.19
367.727	14.41
367.938	8.04
368.149	-9.32
368.36	-12.87
368.571	-6.66
368.781	-0.51
368.992	-0.67
369.203	-6.15
369.414	-0.46
369.625	-5.13
369.836	-14.81
370.047	-8.68
370.258	-11.44
370.468	-9.67
370.679	-5.96
370.89	-1.29
371.101	-8.24
371.312	3.28
371.522	0.01
371.733	12.42
371.944	12.75
372.155	30.02
372.365	26.91
372.576	34.55
372.787	32.44
372.997	37.36
373.208	24.35
373.419	24.84
373.629	27.88
373.84	28.36
374.05	19.09
374.261	19.6
374.472	30
374.682	23.27
374.893	27.59
375.103	34.2
375.314	37.34
375.524	36.47
375.735	37.38
375.945	23.43
376.156	22.66
376.366	28.98
376.577	23.61
376.787	20.38
376.997	34.64
377.208	34.66
377.418	28.27
377.629	23.28
377.839	35.14
378.049	32.68
378.26	30.81
378.47	35.67
378.68	42.05
378.89	31.47
379.101	29.12
379.311	25.94
379.521	16.57
379.732	16.48
379.942	24.56
380.152	20.41
380.362	37.3
380.572	36.53
380.783	31.57
380.993	15.08
381.203	15.84
381.413	2.41
381.623	4.78
381.833	5.45
382.043	20.33
382.253	19.77
382.463	22.14
382.674	31.14
382.884	24.91
383.094	10.14
383.304	14.95
383.514	10.08
383.724	0.7
383.934	-0.92
384.144	3.92
384.353	-4.02
384.563	0.08
384.773	4.44
384.983	5.67
385.193	10.85
385.403	13.03
385.613	17.38
385.823	17.14
386.033	20.03
386.242	17.77
386.452	17
386.662	17.13
386.872	16.31
387.082	14.84
387.291	7.61
387.501	4.79
387.711	-2.04
387.921	0.76
388.13	4.94
388.34	10.65
388.55	15.68
388.759	16.86
388.969	14.18
389.179	13.66
389.388	15.25
389.598	14.55
389.807	15.6
390.017	16.14
390.227	15.16
390.436	12.56
390.646	11.92
390.855	8.99
391.065	7.1
391.274	6.07
391.484	6.35
391.693	4.77
391.903	5.46
392.112	7.48
392.322	7.57
392.531	6.86
392.74	7.22
392.95	7.59
393.159	6.97
393.369	7.19
393.578	8.06
393.787	8.39
393.997	9.76
394.206	10.79
394.415	10.25
394.625	9.63
394.834	9.68
395.043	8.42
395.252	7.71
395.462	8.38
395.671	8.53
395.88	8.56
396.089	8.56
396.298	7.63
396.508	7.23
396.717	7.51
396.926	7.21
397.135	7.42
397.344	7.74
397.553	8.19
397.762	7.64
397.971	7.71
398.181	7.44
398.39	7.39
398.599	7.03
398.808	7.24
399.017	7.11
399.226	7.63
399.435	7.75
399.644	8.21
399.853	8.28
400.062	8.85
400.27	8.25
400.479	7.78
400.688	7.4
400.897	7.08
401.106	6.75
401.315	7.05
401.524	7.49
401.733	7.48
401.941	7.49
402.15	7.17
402.359	7.06
402.568	6.83
402.777	6.71
402.985	6.87
403.194	7.31
403.403	7.47
403.612	7.51
403.82	7.54
404.029	7.48
404.238	7.33
404.446	7.34
404.655	7.35
404.864	7.43
405.072	7.46
405.281	7.35
405.489	7.14
405.698	7.05
405.906	6.92
406.115	6.75
406.324	6.61
406.532	6.61
406.741	6.56
406.949	6.58
407.158	6.43
407.366	6.53
407.574	6.59
407.783	6.61
407.991	6.56
408.2	6.76
408.408	6.75
408.617	6.66
408.825	6.63
409.033	6.61
409.242	6.56
409.45	6.42
409.658	6.44
409.867	6.54
410.075	6.53
410.283	6.43
410.491	6.52
410.7	6.42
410.908	6.34
411.116	6.47
411.324	6.44
411.533	6.4
411.741	6.28
411.949	6.3
412.157	6.15
412.365	6.31
412.573	6.25
412.781	6.32
412.99	6.33
413.198	6.39
413.406	6.38
413.614	6.49
413.822	6.62
414.03	6.53
414.238	6.34
414.446	6.36
414.654	6.32
414.862	6.29
415.07	6.23
415.278	6.32
415.486	6.16
415.694	6.14
415.902	6.07
416.109	6.11
416.317	6.17
416.525	6.19
416.733	6.07
416.941	6.07
417.149	5.92
417.357	5.89
417.564	5.65
417.772	5.8
417.98	5.84
418.188	5.97
418.395	5.98
418.603	6.16
418.811	6.19
419.019	6.14
419.226	6.22
419.434	6.23
419.642	6.25
419.849	6.21
420.057	6.07
420.265	6.01
420.472	5.82
420.68	5.8
420.887	5.73
421.095	5.8
421.302	5.82
421.51	5.85
421.717	5.85
421.925	5.94
422.132	5.81
422.34	5.74
422.547	5.74
422.755	5.75
422.962	5.58
423.17	5.76
423.377	5.78
423.585	5.87
423.792	5.85
423.999	5.78
424.207	5.53
424.414	5.45
424.621	5.32
424.829	5.14
425.036	5.25
425.243	5.38
425.451	5.35
425.658	5.28
425.865	5.48
426.072	5.37
426.28	5.38
426.487	5.59
426.694	5.55
426.901	5.46
427.108	5.57
427.315	5.32
427.523	5.09
427.73	5.16
427.937	5.17
428.144	5.06
428.351	5.17
428.558	5.41
428.765	5.51
428.972	5.44
429.179	5.45
429.386	5.62
429.593	5.43
429.8	5.33
430.007	5.34
430.214	5.16
430.421	5.24
430.628	5.19
430.835	5.37
431.042	5.42
431.249	5.71
431.456	5.51
431.662	5.73
431.869	5.6
432.076	5.53
432.283	5.44
432.49	5.49
432.697	5.41
432.903	5.53
433.11	5.8
433.317	5.83
433.524	5.79
433.73	5.75
433.937	5.55
434.144	5.37
434.35	5.32
434.557	5.29
434.764	5.24
434.97	5.2
435.177	5.23
435.384	5.25
435.59	5.35
435.797	5.32
436.003	5.4
436.21	5.28
436.416	5.26
436.623	5.29
436.829	5.32
437.036	5.37
437.242	5.41
437.449	5.48
437.655	5.57
437.862	5.59
438.068	5.46
438.275	5.58
438.481	5.57
438.687	5.47
438.894	5.6
439.1	5.53
439.307	5.38
439.513	5.36
439.719	5.41
439.926	5.24
440.132	5.41
440.338	5.46
440.544	5.41
440.751	5.3
440.957	5.4
441.163	5.37
441.369	5.42
441.575	5.29
441.782	5.44
441.988	5.41
442.194	5.42
442.4	5.48
442.606	5.6
442.812	5.49
443.018	5.38
443.224	5.32
443.431	5.18
443.637	5.28
443.843	5.18
444.049	5.3
444.255	5.22
444.461	5.04
444.667	4.88
444.873	4.85
445.079	4.88
445.284	4.85
445.49	4.94
445.696	5
445.902	5.06
446.108	5.02
446.314	5.04
446.52	5.23
446.726	5.28
446.931	5.29
447.137	5.2
447.343	5.2
447.549	5.08
447.755	4.99
447.96	4.99
448.166	5.09
448.372	5.23
448.578	5.23
448.783	5.24
448.989	5.25
449.195	5.14
449.4	5.11
449.606	5.08
449.812	5.09
450.017	5.09
450.223	5.17
450.428	5.11
450.634	5.14
450.84	5.08
451.045	5.09
451.251	5.09
451.456	5.09
451.662	5.05
451.867	5.1
452.073	5.11
452.278	5.05
452.483	5.06
452.689	5.12
452.894	5.12
453.1	5.13
453.305	5.12
453.51	5.1
453.716	5.04
453.921	5.02
454.127	4.97
454.332	4.91
454.537	4.97
454.742	4.88
454.948	4.79
455.153	4.78
455.358	4.79
455.563	4.7
455.769	4.79
455.974	4.79
456.179	4.79
456.384	4.7
456.589	4.72
456.795	4.64
457	4.68
457.205	4.51
457.41	4.55
457.615	4.44
457.82	4.43
458.025	4.42
458.23	4.59
458.435	4.54
458.64	4.54
458.845	4.55
459.05	4.49
459.255	4.48
459.46	4.57
459.665	4.7
459.87	4.71
460.075	4.85
460.28	4.84
460.485	4.83
460.69	4.64
460.895	4.71
461.099	4.62
461.304	4.51
461.509	4.51
461.714	4.59
461.919	4.56
462.123	4.54
462.328	4.58
462.533	4.41
462.738	4.43
462.942	4.34
463.147	4.39
463.352	4.33
463.556	4.5
463.761	4.4
463.966	4.37
464.17	4.38
464.375	4.47
464.58	4.47
464.784	4.58
464.989	4.74
465.193	4.71
465.398	4.7
465.602	4.76
465.807	4.72
466.011	4.57
466.216	4.54
466.42	4.57
466.625	4.47
466.829	4.44
467.034	4.62
467.238	4.72
467.443	4.72
467.647	4.68
467.851	4.64
468.056	4.48
468.26	4.43
468.464	4.46
468.669	4.53
