Data from Ofav_PP_Phys_367_Reflection_1.txt Node
Date: Tue Jul 27 19:08:01 EDT 2021
User: USUARIO
Spectrometer: FLMT01687
Trigger mode: 0
Integration Time (sec): 8.500000E-1
Scans to average: 2
Electric dark correction enabled: true
Nonlinearity correction enabled: false
Boxcar width: 2
XAxis mode: Wavelengths
Number of Pixels in Spectrum: 3648
>>>>>Begin Spectral Data<<<<<
179.494	-1311.85
179.716	-443.82
179.937	-330.46
180.158	-289.32
180.38	-301.26
180.601	-293.12
180.823	87.41
181.044	61.57
181.265	35.77
181.486	-0.14
181.708	-28.23
181.929	23.17
182.15	39.01
182.372	-8.12
182.593	6.04
182.814	58.23
183.035	90.58
183.257	70.79
183.478	48.55
183.699	53.36
183.92	65.83
184.141	57.1
184.363	78.5
184.584	111.16
184.805	126.08
185.026	107.73
185.247	120.19
185.468	115.48
185.689	88.47
185.91	66.57
186.132	49.41
186.353	50.64
186.574	51.89
186.795	56.6
187.016	65.49
187.237	55.27
187.458	70.61
187.679	56.3
187.9	59.42
188.121	67.38
188.342	94.16
188.563	105.31
188.784	114.55
189.005	102.92
189.226	87.48
189.447	76.44
189.667	73.67
189.888	84.02
190.109	98.37
190.33	121.71
190.551	100.5
190.772	74.75
190.993	42.42
191.214	38.31
191.434	50.92
191.655	68.56
191.876	77.57
192.097	72.66
192.318	71.79
192.538	60.21
192.759	62.09
192.98	56.76
193.201	57.96
193.421	65.1
193.642	49.46
193.863	35.51
194.083	49.01
194.304	54.65
194.525	36.77
194.745	14.92
194.966	11.17
195.187	-10.61
195.407	27.17
195.628	76.87
195.848	115.16
196.069	127.97
196.29	220.17
196.51	183.77
196.731	141.13
196.951	111.81
197.172	97.44
197.392	68.53
197.613	77.23
197.833	49.17
198.054	79.12
198.274	83.57
198.495	95.6
198.715	114.03
198.936	149.89
199.156	117.86
199.377	131.42
199.597	143.39
199.817	80.51
200.038	119.99
200.258	101.09
200.479	60.72
200.699	38.26
200.919	49.88
201.14	39.65
201.36	35.7
201.58	55.93
201.801	91.21
202.021	77.26
202.241	92.89
202.461	92.66
202.682	73.56
202.902	57.82
203.122	52.85
203.342	73.64
203.563	76.3
203.783	60.86
204.003	57.84
204.223	48.03
204.443	32.2
204.663	5.05
204.884	62.21
205.104	33.83
205.324	56.79
205.544	61.7
205.764	62.27
205.984	43.99
206.204	89.44
206.424	108.51
206.644	81.74
206.864	88.73
207.084	81.74
207.304	80.22
207.525	53.29
207.745	65.06
207.964	47.59
208.184	60.54
208.404	47.9
208.624	64.89
208.844	74.84
209.064	77.3
209.284	71.33
209.504	79.11
209.724	84.73
209.944	0.04
210.164	23.93
210.384	55.67
210.604	31.58
210.823	41.87
211.043	58.79
211.263	68.01
211.483	76.85
211.703	78.99
211.922	103.44
212.142	165.66
212.362	89.3
212.582	76.73
212.801	72.08
213.021	59.98
213.241	20.22
213.461	47.31
213.68	63.41
213.9	62.48
214.12	61.91
214.339	94.57
214.559	86.58
214.779	71.47
214.998	66.06
215.218	59.83
215.438	59.15
215.657	50.75
215.877	52.43
216.096	54.67
216.316	78.95
216.535	60.83
216.755	82.8
216.974	87.62
217.194	101.54
217.413	84.5
217.633	86.7
217.852	62.26
218.072	54.7
218.291	44.29
218.511	48.42
218.73	54.27
218.95	60.27
219.169	65.81
219.389	69.04
219.608	58.98
219.827	77.18
220.047	102.95
220.266	76.61
220.485	68.36
220.705	71.73
220.924	67.58
221.143	60.25
221.363	60.54
221.582	58.27
221.801	45.75
222.021	39.15
222.24	42.51
222.459	38.89
222.678	41.49
222.897	43.7
223.117	46.23
223.336	33.94
223.555	25.42
223.774	23.32
223.993	33.67
224.213	20.91
224.432	28.43
224.651	40.2
224.87	35.99
225.089	22.35
225.308	19.01
225.527	36.21
225.746	32.84
225.965	42.53
226.184	59.81
226.404	75.62
226.623	69.28
226.842	54.1
227.061	39.41
227.28	31.83
227.499	43.72
227.718	44.38
227.936	51.97
228.155	59.14
228.374	60.47
228.593	46.47
228.812	39.61
229.031	41.36
229.25	42.03
229.469	29.07
229.688	35.92
229.907	26.24
230.125	46.64
230.344	46
230.563	38.94
230.782	51.35
231.001	43.49
231.22	40
231.438	33.68
231.657	31.42
231.876	16.64
232.095	42.42
232.313	34.22
232.532	30.8
232.751	55.41
232.969	71.34
233.188	60.18
233.407	60.5
233.625	77.4
233.844	53.35
234.063	38.32
234.281	63.7
234.5	59.21
234.719	62.37
234.937	53.03
235.156	59.07
235.374	37.46
235.593	54.8
235.811	38.88
236.03	41.92
236.249	24.38
236.467	37.1
236.686	14.99
236.904	21.23
237.123	41.49
237.341	61.65
237.559	49.25
237.778	75.7
237.996	87.4
238.215	73.97
238.433	60.56
238.652	62.74
238.87	42.94
239.088	16.98
239.307	32.45
239.525	13.76
239.743	5.19
239.962	8.5
240.18	26.49
240.398	13.42
240.617	23.72
240.835	32.67
241.053	55.78
241.271	55.18
241.49	66.28
241.708	95.05
241.926	75.71
242.144	47.48
242.363	48.52
242.581	48.5
242.799	26.14
243.017	35.39
243.235	49.84
243.453	31.99
243.672	43.58
243.89	44.22
244.108	50.47
244.326	60.08
244.544	49.67
244.762	37.37
244.98	53.71
245.198	40.04
245.416	28.7
245.634	73.13
245.852	102.63
246.07	87.97
246.288	98.13
246.506	90.85
246.724	79.3
246.942	72.6
247.16	78.12
247.378	64.45
247.596	77.78
247.814	68.5
248.032	54.61
248.25	47.86
248.468	55.48
248.685	35.18
248.903	43.96
249.121	58.14
249.339	67.44
249.557	60.64
249.775	43.62
249.992	31.08
250.21	24.89
250.428	21.37
250.646	19.32
250.863	41.17
251.081	53.34
251.299	57.33
251.517	49.41
251.734	63.93
251.952	69.29
252.17	85.72
252.387	74.42
252.605	79.02
252.823	59.26
253.04	72.78
253.258	65.93
253.475	54.87
253.693	61.67
253.911	70.83
254.128	45.4
254.346	47.07
254.563	61.17
254.781	45.17
254.998	41.07
255.216	16.81
255.433	15.08
255.651	25.38
255.868	12.98
256.086	10.96
256.303	33.88
256.521	35.87
256.738	26.57
256.956	35.01
257.173	48.33
257.39	53.57
257.608	59.25
257.825	84.6
258.043	83.28
258.26	80.25
258.477	72.6
258.695	67.42
258.912	47.18
259.129	49.72
259.346	51.43
259.564	79.28
259.781	98.47
259.998	92.42
260.216	95.86
260.433	93.7
260.65	84.5
260.867	72.18
261.084	85.34
261.302	78.13
261.519	68.8
261.736	52
261.953	60.27
262.17	43.95
262.387	39.44
262.604	46.02
262.822	57.65
263.039	48.82
263.256	65.56
263.473	87.97
263.69	104.67
263.907	88.4
264.124	89.1
264.341	80.1
264.558	62.15
264.775	52.95
264.992	60.52
265.209	52.99
265.426	40.02
265.643	44.07
265.86	38.8
266.077	36.01
266.294	57.23
266.51	69.66
266.727	64.76
266.944	61.05
267.161	19.66
267.378	7.26
267.595	12.86
267.812	26.6
268.028	42.41
268.245	88.43
268.462	78.53
268.679	62.12
268.896	45.23
269.112	29.55
269.329	36.67
269.546	52.36
269.763	41.43
269.979	55.1
270.196	65.22
270.413	70.14
270.629	62.49
270.846	94.73
271.063	68.55
271.279	62.63
271.496	55.9
271.712	45.49
271.929	6.6
272.146	13.53
272.362	24.48
272.579	30.2
272.795	55.27
273.012	61.45
273.228	61.98
273.445	65.73
273.661	79.09
273.878	61.41
274.094	50.71
274.311	47.88
274.527	27.83
274.744	17.98
274.96	30.78
275.177	38.08
275.393	31.51
275.609	40.18
275.826	31.31
276.042	13.65
276.259	30.35
276.475	30.57
276.691	31.74
276.908	32.32
277.124	48.48
277.34	51.1
277.557	46
277.773	60.92
277.989	66.21
278.205	55.36
278.422	49.99
278.638	58.74
278.854	54.57
279.07	53.06
279.286	56.35
279.503	42.29
279.719	55.88
279.935	68.03
280.151	74.25
280.367	72.21
280.583	87.8
280.799	83.71
281.016	76
281.232	66.38
281.448	48.42
281.664	29.03
281.88	12.81
282.096	6.24
282.312	9.23
282.528	28.1
282.744	41.97
282.96	49.59
283.176	82.35
283.392	116.91
283.608	131.41
283.824	97.7
284.04	77.53
284.256	60.93
284.471	34.76
284.687	31.42
284.903	41.28
285.119	61.6
285.335	65.51
285.551	61.99
285.767	55.05
285.982	44.72
286.198	39.34
286.414	29.72
286.63	34.45
286.846	23.69
287.061	18.01
287.277	7.92
287.493	1.28
287.709	12.63
287.924	25.42
288.14	54.62
288.356	84.34
288.571	94.72
288.787	84.27
289.003	84.96
289.218	70.65
289.434	45.43
289.65	33.93
289.865	7.55
290.081	27.37
290.296	30.11
290.512	32.03
290.727	43.02
290.943	79.98
291.159	84.76
291.374	96.7
291.59	86.75
291.805	82.26
292.021	78.46
292.236	82.08
292.451	65.01
292.667	67.08
292.882	52.81
293.098	35.65
293.313	36.56
293.529	51.04
293.744	45.76
293.959	58.94
294.175	70.02
294.39	65.16
294.605	66.77
294.821	62.54
295.036	58.09
295.251	63.18
295.467	52.29
295.682	36.75
295.897	42.41
296.112	52.38
296.328	53.92
296.543	64.62
296.758	58.73
296.973	67.6
297.188	67.79
297.404	56.97
297.619	51.26
297.834	51.37
298.049	51.65
298.264	55.13
298.479	63.66
298.694	58.86
298.909	51.18
299.125	40.25
299.34	29.76
299.555	39.39
299.77	55.52
299.985	61.64
300.2	73.87
300.415	79.2
300.63	48.42
300.845	38.05
301.06	37.42
301.275	11.05
301.49	27.28
301.704	34.19
301.919	35.3
302.134	45.98
302.349	60.31
302.564	45.58
302.779	49.74
302.994	47.3
303.209	55.58
303.423	39.78
303.638	25.74
303.853	20.36
304.068	30.77
304.283	20.81
304.497	27.08
304.712	40.37
304.927	40.31
305.142	35.02
305.356	28.82
305.571	43.55
305.786	44.98
306	47.42
306.215	55.84
306.43	59.67
306.644	59.11
306.859	68.07
307.074	66.7
307.288	60.27
307.503	69.14
307.717	64.21
307.932	64.44
308.147	84.16
308.361	76.23
308.576	72.08
308.79	79.39
309.005	70.83
309.219	49.34
309.434	60.28
309.648	55.67
309.863	53.57
310.077	55.18
310.292	48.91
310.506	33.85
310.72	39.26
310.935	28.9
311.149	27.3
311.364	40.45
311.578	42.28
311.792	49.41
312.007	44.73
312.221	48.21
312.435	49.99
312.649	67.81
312.864	38.64
313.078	29.04
313.292	18.45
313.507	39.46
313.721	41.01
313.935	56.97
314.149	56.55
314.363	49.63
314.578	38.27
314.792	24.94
315.006	27.62
315.22	40.43
315.434	45.32
315.648	54.39
315.862	60.51
316.077	69.03
316.291	85.43
316.505	78.86
316.719	70.95
316.933	66.06
317.147	52.18
317.361	30.64
317.575	24.77
317.789	10.72
318.003	11.64
318.217	19.59
318.431	14.24
318.645	25.57
318.859	41.23
319.073	36.58
319.287	39.69
319.5	43.34
319.714	42.04
319.928	42.65
320.142	17.82
320.356	44.9
320.57	55.61
320.784	65.15
320.997	71.55
321.211	83
321.425	64.76
321.639	39.54
321.853	21.86
322.066	14.14
322.28	8.42
322.494	6.32
322.707	20.85
322.921	25.73
323.135	21.13
323.349	27.91
323.562	34.88
323.776	43.02
323.989	27.48
324.203	40.46
324.417	36.72
324.63	45.6
324.844	51.04
325.057	63.98
325.271	75.37
325.485	66.2
325.698	80.57
325.912	90.93
326.125	95.82
326.339	85.43
326.552	92.66
326.766	82.74
326.979	58.38
327.193	49.92
327.406	43.5
327.619	54.74
327.833	48.29
328.046	64.6
328.26	53.66
328.473	54.07
328.686	40.26
328.9	41.72
329.113	30.99
329.326	33.8
329.54	57.77
329.753	60.62
329.966	73.71
330.179	62.18
330.393	67.46
330.606	32.48
330.819	35.52
331.032	32.26
331.246	51.36
331.459	39.31
331.672	47.24
331.885	58.9
332.098	68.54
332.311	70.1
332.525	76.13
332.738	56.23
332.951	50.06
333.164	44.93
333.377	32.18
333.59	26.04
333.803	45.61
334.016	40.05
334.229	29.07
334.442	46.65
334.655	58.4
334.868	64.75
335.081	74.58
335.294	83.79
335.507	82.16
335.72	90.58
335.933	64.52
336.146	46.49
336.359	43.32
336.572	46.5
336.785	33.75
336.997	48.59
337.21	66.39
337.423	69.83
337.636	57.02
337.849	53.72
338.062	51.4
338.274	54.75
338.487	62.2
338.7	48.5
338.913	47.53
339.125	48.47
339.338	24.96
339.551	5.3
339.763	29.43
339.976	45.16
340.189	40.06
340.402	50.6
340.614	47.74
340.827	53.56
341.039	33.5
341.252	32.98
341.465	22.82
341.677	37.17
341.89	15.79
342.102	33.28
342.315	41.9
342.527	47.96
342.74	50.18
342.952	37.28
343.165	39.87
343.377	33.29
343.59	21.29
343.802	21
344.015	48.88
344.227	45.86
344.44	41.25
344.652	65.11
344.864	71.12
345.077	42.3
345.289	38.85
345.502	39.06
345.714	34.84
345.926	22.55
346.139	18.91
346.351	21.06
346.563	26.55
346.775	31.57
346.988	31.5
347.2	34.15
347.412	59.83
347.624	55.92
347.837	52.92
348.049	53.28
348.261	60.81
348.473	60.2
348.685	72.7
348.897	87.89
349.11	97.26
349.322	85.97
349.534	72.71
349.746	66.2
349.958	57.71
350.17	53.37
350.382	50.74
350.594	36.87
350.806	50.58
351.018	50.3
351.23	45.82
351.442	52.87
351.654	81.69
351.866	52.84
352.078	56.37
352.29	48.04
352.502	54.37
352.714	40.68
352.926	50.71
353.138	42.39
353.35	46.62
353.561	37.58
353.773	45.74
353.985	42.61
354.197	38.09
354.409	47.53
354.621	48.31
354.832	46.4
355.044	45.57
355.256	57.04
355.468	56.16
355.679	62.21
355.891	62.8
356.103	68.41
356.314	63.46
356.526	66.44
356.738	62.32
356.949	52.77
357.161	56.91
357.373	47.84
357.584	52.81
357.796	50.75
358.008	57.87
358.219	48.43
358.431	55.7
358.642	39.19
358.854	51.95
359.065	47.7
359.277	53.71
359.488	56.41
359.7	63.34
359.911	59.59
360.123	64.52
360.334	62.99
360.546	52
360.757	50.77
360.969	39.29
361.18	39.25
361.391	35.18
361.603	41.85
361.814	43.96
362.025	55.78
362.237	54.35
362.448	54.21
362.659	47.16
362.871	49.3
363.082	45.1
363.293	47.72
363.504	64.78
363.716	74.08
363.927	68.7
364.138	59.34
364.349	42.45
364.56	35.5
364.772	31.14
364.983	34.88
365.194	30.85
365.405	46.6
365.616	39.49
365.827	44.78
366.038	50.98
366.25	59.59
366.461	51.46
366.672	46.54
366.883	33.79
367.094	29.38
367.305	27.88
367.516	25.27
367.727	39.26
367.938	43.28
368.149	44.11
368.36	53.03
368.571	44.17
368.781	38.56
368.992	41.9
369.203	36.57
369.414	23.41
369.625	39.92
369.836	44.21
370.047	42.93
370.258	45.7
370.468	51.84
370.679	38.56
370.89	32.59
371.101	33.5
371.312	36.87
371.522	33.33
371.733	43.49
371.944	44.02
372.155	40.76
372.365	29.6
372.576	32.83
372.787	33.83
372.997	38.4
373.208	41.62
373.419	43.12
373.629	47.07
373.84	48.37
374.05	41.05
374.261	37.75
374.472	47.57
374.682	36.63
374.893	37.08
375.103	39.5
375.314	47.42
375.524	53.36
375.735	56.2
375.945	52.6
376.156	57.36
376.366	50.83
376.577	37.11
376.787	40.16
376.997	44.88
377.208	44.53
377.418	43.14
377.629	51.42
377.839	74.4
378.049	62.16
378.26	51.86
378.47	54.17
378.68	57.94
378.89	37.94
379.101	28.03
379.311	26.9
379.521	24.25
379.732	17.04
379.942	34.25
380.152	45.57
380.362	60.66
380.572	61.82
380.783	67.04
380.993	44.66
381.203	46.26
381.413	34.07
381.623	35.68
381.833	28.4
382.043	35.12
382.253	29.09
382.463	30.94
382.674	31.74
382.884	27.45
383.094	20.84
383.304	31.94
383.514	34.16
383.724	22.55
383.934	27.25
384.144	24.63
384.353	15.97
384.563	13.07
384.773	21.19
384.983	13.37
385.193	18.46
385.403	21.51
385.613	23.67
385.823	20.12
386.033	25.81
386.242	25.92
386.452	24.27
386.662	27.4
386.872	26.32
387.082	23.01
387.291	11.29
387.501	11.99
387.711	7.27
387.921	9.22
388.13	13.66
388.34	20.96
388.55	18.94
388.759	18.45
388.969	15.57
389.179	16.68
389.388	19.41
389.598	21.27
389.807	18.39
390.017	20.59
390.227	18.51
390.436	16.61
390.646	14.18
390.855	13.48
391.065	10.43
391.274	9.8
391.484	7.62
391.693	7.6
391.903	10.19
392.112	12.63
392.322	11.75
392.531	10.97
392.74	10.55
392.95	9.25
393.159	8.65
393.369	8.7
393.578	10.11
393.787	10.35
393.997	11.27
394.206	11.51
394.415	11.69
394.625	10.76
394.834	10.36
395.043	11.02
395.252	10.67
395.462	10.81
395.671	10.73
395.88	11.8
396.089	11.5
396.298	11.16
396.508	10.94
396.717	11.18
396.926	10.24
397.135	9.22
397.344	8.76
397.553	8.98
397.762	8.23
397.971	8.02
398.181	8.06
398.39	7.97
398.599	7.81
398.808	8.25
399.017	8.7
399.226	8.78
399.435	9.22
399.644	9.42
399.853	9.56
400.062	9.53
400.27	9.29
400.479	8.97
400.688	8.33
400.897	8.18
401.106	8.08
401.315	8.24
401.524	8.14
401.733	8.11
401.941	7.85
402.15	7.63
402.359	7.55
402.568	7.42
402.777	7.54
402.985	7.57
403.194	7.89
403.403	7.85
403.612	7.99
403.82	7.98
404.029	8.05
404.238	7.9
404.446	7.77
404.655	7.79
404.864	7.77
405.072	7.76
405.281	7.63
405.489	7.7
405.698	7.6
405.906	7.57
406.115	7.41
406.324	7.23
406.532	6.97
406.741	6.93
406.949	6.92
407.158	6.98
407.366	7.01
407.574	7.24
407.783	7.1
407.991	7.1
408.2	7.03
408.408	7.14
408.617	7
408.825	7.02
409.033	6.93
409.242	6.85
409.45	6.79
409.658	6.75
409.867	6.79
410.075	6.69
410.283	6.73
410.491	6.67
410.7	6.68
410.908	6.66
411.116	6.63
411.324	6.63
411.533	6.48
411.741	6.31
411.949	6.23
412.157	6.3
412.365	6.43
412.573	6.4
412.781	6.53
412.99	6.68
413.198	6.77
413.406	6.66
413.614	6.72
413.822	6.63
414.03	6.5
414.238	6.25
414.446	6.18
414.654	6.24
414.862	6.31
415.07	6.26
415.278	6.21
415.486	6.08
415.694	5.98
415.902	6
416.109	6.06
416.317	6.19
416.525	6.2
416.733	6.27
416.941	6.35
417.149	6.15
417.357	6.18
417.564	6.14
417.772	6.01
417.98	5.95
418.188	6.13
418.395	5.96
418.603	6.01
418.811	6.16
419.019	5.96
419.226	5.97
419.434	6.2
419.642	6.28
419.849	6.22
420.057	6.15
420.265	6.21
420.472	5.98
420.68	6
420.887	6.1
421.095	6.31
421.302	6.11
421.51	5.94
421.717	5.78
421.925	5.61
422.132	5.6
422.34	5.59
422.547	5.72
422.755	5.82
422.962	5.73
423.17	5.72
423.377	5.81
423.585	6.03
423.792	6.05
423.999	6.08
424.207	5.93
424.414	5.78
424.621	5.67
424.829	5.32
425.036	5.33
425.243	5.39
425.451	5.34
425.658	5.22
425.865	5.4
426.072	5.27
426.28	5.34
426.487	5.52
426.694	5.43
426.901	5.47
427.108	5.62
427.315	5.58
427.523	5.36
427.73	5.37
427.937	5.27
428.144	5.33
428.351	5.26
428.558	5.52
428.765	5.64
428.972	5.77
429.179	5.65
429.386	5.6
429.593	5.44
429.8	5.39
430.007	5.31
430.214	5.35
430.421	5.51
430.628	5.55
430.835	5.6
431.042	5.52
431.249	5.6
431.456	5.73
431.662	5.77
431.869	5.75
432.076	5.7
432.283	5.6
432.49	5.4
432.697	5.37
432.903	5.33
433.11	5.78
433.317	5.69
433.524	5.75
433.73	5.72
433.937	5.69
434.144	5.51
434.35	5.63
434.557	5.6
434.764	5.53
434.97	5.6
435.177	5.54
435.384	5.55
435.59	5.53
435.797	5.63
436.003	5.64
436.21	5.58
436.416	5.52
436.623	5.39
436.829	5.26
437.036	5.24
437.242	5.19
437.449	5.2
437.655	5.37
437.862	5.58
438.068	5.58
438.275	5.63
438.481	5.63
438.687	5.63
438.894	5.61
439.1	5.57
439.307	5.51
439.513	5.5
439.719	5.56
439.926	5.44
440.132	5.52
440.338	5.46
440.544	5.37
440.751	5.19
440.957	5.23
441.163	5.16
441.369	5.26
441.575	5.4
441.782	5.58
441.988	5.54
442.194	5.52
442.4	5.6
442.606	5.63
442.812	5.67
443.018	5.58
443.224	5.61
443.431	5.46
443.637	5.51
443.843	5.39
444.049	5.54
444.255	5.52
444.461	5.47
444.667	5.3
444.873	5.24
445.079	5.29
445.284	5.3
445.49	5.38
445.696	5.39
445.902	5.4
446.108	5.32
446.314	5.32
446.52	5.38
446.726	5.42
446.931	5.47
447.137	5.41
447.343	5.35
447.549	5.31
447.755	5.28
447.96	5.29
448.166	5.41
448.372	5.42
448.578	5.45
448.783	5.5
448.989	5.53
449.195	5.4
449.4	5.45
449.606	5.36
449.812	5.34
450.017	5.34
450.223	5.44
450.428	5.42
450.634	5.45
450.84	5.34
451.045	5.37
451.251	5.45
451.456	5.55
451.662	5.54
451.867	5.62
452.073	5.48
452.278	5.31
452.483	5.24
452.689	5.26
452.894	5.29
453.1	5.37
453.305	5.35
453.51	5.43
453.716	5.47
453.921	5.54
454.127	5.53
454.332	5.51
454.537	5.45
454.742	5.32
454.948	5.16
455.153	5.16
455.358	5.23
455.563	5.21
455.769	5.17
455.974	5.22
456.179	5.17
456.384	5
456.589	5.07
456.795	5.18
457	5.14
457.205	5.1
457.41	5.18
457.615	5.08
457.82	5.05
458.025	5.07
458.23	5.18
458.435	5.26
458.64	5.19
458.845	5.21
459.05	5.11
459.255	5.15
459.46	5.11
459.665	5.2
459.87	5.26
460.075	5.39
460.28	5.31
460.485	5.22
460.69	5.19
460.895	5.13
461.099	5.1
461.304	5.07
461.509	5.12
461.714	5.14
461.919	5.11
462.123	5.04
462.328	5.06
462.533	5.05
462.738	5.06
462.942	5.05
463.147	5.16
463.352	5.03
463.556	5.18
463.761	5.17
463.966	5.17
464.17	5.12
464.375	5.29
464.58	5.14
464.784	5.21
464.989	5.23
465.193	5.2
465.398	5.22
465.602	5.33
465.807	5.11
466.011	5.11
466.216	5.06
466.42	5.07
466.625	4.98
466.829	5.02
467.034	5.09
467.238	5.14
467.443	5.06
467.647	5.03
467.851	5.12
