Data from Ofav_PP_Phys_313_Reflection_1.txt Node
Date: Tue Jul 27 19:06:11 EDT 2021
User: USUARIO
Spectrometer: FLMT01687
Trigger mode: 0
Integration Time (sec): 8.500000E-1
Scans to average: 2
Electric dark correction enabled: true
Nonlinearity correction enabled: false
Boxcar width: 2
XAxis mode: Wavelengths
Number of Pixels in Spectrum: 3648
>>>>>Begin Spectral Data<<<<<
179.494	-1212.59
179.716	-419.09
179.937	-259.9
180.158	-217.26
180.38	-247.24
180.601	-199.41
180.823	78.57
181.044	68.39
181.265	64.4
181.486	23.18
181.708	-10.7
181.929	108.01
182.15	62.41
182.372	91.02
182.593	59.63
182.814	39.33
183.035	85.84
183.257	76.13
183.478	77.63
183.699	65.38
183.92	103.41
184.141	65.6
184.363	74.85
184.584	72.84
184.805	79.64
185.026	57.26
185.247	71.89
185.468	63.42
185.689	46.38
185.91	39.71
186.132	14.02
186.353	20.83
186.574	-3.22
186.795	-12.31
187.016	-11.12
187.237	-18.68
187.458	-5.59
187.679	20.11
187.9	39.87
188.121	47.09
188.342	85.13
188.563	66.02
188.784	98.43
189.005	87.66
189.226	87.26
189.447	82.42
189.667	87.19
189.888	73.77
190.109	78.52
190.33	87.03
190.551	46.37
190.772	28.83
190.993	30.1
191.214	31.82
191.434	26.36
191.655	40.55
191.876	55.13
192.097	33.98
192.318	41.61
192.538	41.63
192.759	53.81
192.98	40.6
193.201	53.11
193.421	36.7
193.642	37.6
193.863	15.2
194.083	22.53
194.304	25.96
194.525	21.74
194.745	27.06
194.966	48.25
195.187	13.89
195.407	10.24
195.628	74.54
195.848	66.14
196.069	66.46
196.29	133.13
196.51	166.08
196.731	117.18
196.951	129.26
197.172	135.21
197.392	106.06
197.613	101.07
197.833	70.53
198.054	48.67
198.274	32.77
198.495	38.46
198.715	35.51
198.936	42.95
199.156	75.93
199.377	113.57
199.597	134.1
199.817	81.81
200.038	124.5
200.258	115.26
200.479	71.05
200.699	51.36
200.919	45.7
201.14	42.77
201.36	18.25
201.58	27.83
201.801	26.71
202.021	16.45
202.241	22.19
202.461	24.83
202.682	8.6
202.902	-7.21
203.122	26.7
203.342	23.04
203.563	36.37
203.783	48.82
204.003	53.02
204.223	43.69
204.443	49.16
204.663	49.34
204.884	57.33
205.104	44.06
205.324	44.11
205.544	34.79
205.764	19.7
205.984	-0.24
206.204	-23.4
206.424	-22.03
206.644	21.64
206.864	46.95
207.084	40.44
207.304	62.55
207.525	47.66
207.745	51.74
207.964	44.16
208.184	60.11
208.404	56.04
208.624	66.68
208.844	56.2
209.064	59.52
209.284	37.79
209.504	19.66
209.724	27.66
209.944	13.51
210.164	14.07
210.384	61.26
210.604	84.67
210.823	46.38
211.043	38.96
211.263	40.29
211.483	71.2
211.703	69.32
211.922	55.7
212.142	94.86
212.362	63.9
212.582	6.09
212.801	18
213.021	26.71
213.241	-16.02
213.461	-25.56
213.68	12.01
213.9	14.71
214.12	9.09
214.339	41.08
214.559	30.35
214.779	23.73
214.998	22.39
215.218	26.68
215.438	41.36
215.657	51.4
215.877	46.72
216.096	45.61
216.316	56.64
216.535	42.95
216.755	65.38
216.974	76.35
217.194	83.6
217.413	78.98
217.633	73.06
217.852	49.32
218.072	22.54
218.291	2.69
218.511	-11.47
218.73	4.34
218.95	-3.56
219.169	21.67
219.389	22.1
219.608	45.04
219.827	40.12
220.047	41.82
220.266	46.32
220.485	54.32
220.705	47.48
220.924	61.99
221.143	60.38
221.363	41.96
221.582	36.77
221.801	48.28
222.021	41.03
222.24	43.42
222.459	43.54
222.678	54.42
222.897	44.06
223.117	30.72
223.336	21.98
223.555	35.4
223.774	20.83
223.993	13.08
224.213	32.1
224.432	45.97
224.651	55.98
224.87	50.71
225.089	42.28
225.308	24.28
225.527	26.94
225.746	32.81
225.965	49.84
226.184	56.36
226.404	64.17
226.623	54.86
226.842	37.64
227.061	41.47
227.28	33.44
227.499	47.75
227.718	53.65
227.936	51.72
228.155	49.53
228.374	67.19
228.593	53.64
228.812	54.42
229.031	51.94
229.25	43.99
229.469	35.92
229.688	29.27
229.907	-3.42
230.125	13.13
230.344	25.24
230.563	35.95
230.782	41.6
231.001	51.6
231.22	48.17
231.438	40.09
231.657	20.23
231.876	17.88
232.095	9.18
232.313	16.73
232.532	22.76
232.751	12.63
232.969	7.81
233.188	31.85
233.407	6.98
233.625	-1.28
233.844	10.14
234.063	24.29
234.281	8
234.5	24.7
234.719	41.29
234.937	34.09
235.156	40.89
235.374	47.65
235.593	53.14
235.811	43.57
236.03	67.11
236.249	41.37
236.467	27.47
236.686	24.39
236.904	27.02
237.123	15.29
237.341	14.98
237.559	22.81
237.778	38.74
237.996	28.48
238.215	43.43
238.433	61.62
238.652	67.21
238.87	60.44
239.088	52.17
239.307	42.82
239.525	14.77
239.743	10.13
239.962	10.55
240.18	26.94
240.398	16.96
240.617	20.94
240.835	41.16
241.053	30.47
241.271	22.26
241.49	21.41
241.708	32.51
241.926	-2.26
242.144	-10.32
242.363	8.31
242.581	20.2
242.799	14.58
243.017	24.43
243.235	43.49
243.453	51.56
243.672	46.32
243.89	47.97
244.108	53.09
244.326	47.7
244.544	26.74
244.762	26.74
244.98	54.69
245.198	53.73
245.416	68.47
245.634	88.31
245.852	127.77
246.07	84.43
246.288	78.92
246.506	72.22
246.724	67.33
246.942	51.9
247.16	57.57
247.378	53.35
247.596	48.54
247.814	41.14
248.032	28.43
248.25	25.95
248.468	41.99
248.685	40.69
248.903	47.68
249.121	68.56
249.339	66.54
249.557	46.23
249.775	27.26
249.992	16.84
250.21	25.02
250.428	28.86
250.646	18.39
250.863	44.93
251.081	74.02
251.299	45.92
251.517	27.45
251.734	63.21
251.952	49.42
252.17	37.11
252.387	38.29
252.605	54.95
252.823	37.06
253.04	57.83
253.258	61.99
253.475	68.99
253.693	70.16
253.911	75.03
254.128	58.95
254.346	50.12
254.563	40.76
254.781	30.74
254.998	39.19
255.216	32.33
255.433	40.49
255.651	55.22
255.868	60.29
256.086	39.37
256.303	43.13
256.521	47.39
256.738	41.94
256.956	40.87
257.173	43.79
257.39	41.23
257.608	40.17
257.825	34.01
258.043	39.34
258.26	45.58
258.477	51.89
258.695	44.5
258.912	52.19
259.129	61.18
259.346	56.74
259.564	55.12
259.781	81.02
259.998	69.95
260.216	57.82
260.433	56.59
260.65	56.96
260.867	49.76
261.084	58.84
261.302	58.15
261.519	61.61
261.736	53.48
261.953	40.46
262.17	38.69
262.387	33.03
262.604	30.82
262.822	36.91
263.039	53.04
263.256	63.4
263.473	81.49
263.69	93.6
263.907	77.42
264.124	75.06
264.341	66.68
264.558	68.24
264.775	63.66
264.992	75.84
265.209	63.09
265.426	63.7
265.643	59.05
265.86	43.7
266.077	25.38
266.294	54.54
266.51	46.97
266.727	31.62
266.944	44.93
267.161	42.62
267.378	22.22
267.595	35.21
267.812	50.74
268.028	55.24
268.245	61.06
268.462	49.41
268.679	25.28
268.896	19.22
269.112	2.47
269.329	5.15
269.546	21.15
269.763	2.06
269.979	7.02
270.196	23.32
270.413	29.96
270.629	36.21
270.846	75.86
271.063	62.09
271.279	62.6
271.496	49.11
271.712	28.98
271.929	-10.9
272.146	-26.43
272.362	-7.75
272.579	-0.68
272.795	3.4
273.012	13.16
273.228	22.49
273.445	27.12
273.661	42.66
273.878	39.29
274.094	41.31
274.311	43.35
274.527	36.34
274.744	27.92
274.96	22.09
275.177	22.93
275.393	26.2
275.609	24.97
275.826	43.23
276.042	61.96
276.259	68.17
276.475	60.77
276.691	65.14
276.908	49.07
277.124	38.08
277.34	41.85
277.557	38.63
277.773	32.45
277.989	38.62
278.205	40.21
278.422	38.75
278.638	31.9
278.854	56.59
279.07	60.05
279.286	62.76
279.503	49.43
279.719	61.86
279.935	53.95
280.151	51.71
280.367	47.78
280.583	60.65
280.799	61.87
281.016	55.09
281.232	55.11
281.448	56.74
281.664	38
281.88	25.75
282.096	26.71
282.312	20.19
282.528	20.74
282.744	38.42
282.96	44.78
283.176	61.02
283.392	66.91
283.608	78.02
283.824	55.32
284.04	36.39
284.256	39.86
284.471	27.19
284.687	23.31
284.903	36.32
285.119	47.65
285.335	37.72
285.551	46.84
285.767	52.05
285.982	43.06
286.198	40.77
286.414	36.98
286.63	31.24
286.846	27.64
287.061	25.6
287.277	23.55
287.493	18.1
287.709	24.27
287.924	22.95
288.14	44.99
288.356	65.84
288.571	85.62
288.787	87.44
289.003	106.77
289.218	97.17
289.434	78.84
289.65	73.92
289.865	52.9
290.081	48.69
290.296	38.21
290.512	39.5
290.727	26.54
290.943	47.02
291.159	47.58
291.374	46.96
291.59	51.17
291.805	51.89
292.021	39.82
292.236	37.9
292.451	36.74
292.667	36.44
292.882	33.95
293.098	28.55
293.313	30.13
293.529	50.33
293.744	47.89
293.959	53.89
294.175	63.38
294.39	53.17
294.605	37.77
294.821	38.38
295.036	32.05
295.251	6.79
295.467	22.73
295.682	15.1
295.897	24.29
296.112	24.1
296.328	38.35
296.543	43.96
296.758	45.05
296.973	32.23
297.188	42.38
297.404	30.89
297.619	36.03
297.834	36.69
298.049	42.82
298.264	36.05
298.479	53.54
298.694	39.86
298.909	42.53
299.125	49.85
299.34	48.25
299.555	38.51
299.77	42.19
299.985	40.94
300.2	27.43
300.415	20.76
300.63	20.31
300.845	27.12
301.06	16.1
301.275	21.59
301.49	28.51
301.704	20.92
301.919	11.13
302.134	34.06
302.349	32.6
302.564	36.86
302.779	28.5
302.994	26.68
303.209	20.01
303.423	20.88
303.638	-0.88
303.853	12.26
304.068	36.34
304.283	32.54
304.497	38.51
304.712	49.23
304.927	60.6
305.142	45.99
305.356	30.55
305.571	37.72
305.786	48.8
306	40.27
306.215	39.05
306.43	63.18
306.644	57.21
306.859	64.08
307.074	66.81
307.288	53.96
307.503	38.79
307.717	42.43
307.932	25.95
308.147	42.13
308.361	49.9
308.576	57.28
308.79	48.07
309.005	44.43
309.219	14.36
309.434	23.32
309.648	12.78
309.863	15.24
310.077	21.89
310.292	30.5
310.506	12.04
310.72	17.58
310.935	12.92
311.149	19.21
311.364	10.51
311.578	36.54
311.792	29.51
312.007	25.63
312.221	29.44
312.435	41.79
312.649	49.71
312.864	63.01
313.078	62.17
313.292	71.97
313.507	49.62
313.721	44.81
313.935	32.1
314.149	41.65
314.363	37.89
314.578	37.49
314.792	30.76
315.006	34.5
315.22	36.64
315.434	28.92
315.648	34.01
315.862	28.62
316.077	32.99
316.291	34.03
316.505	42.96
316.719	46.33
316.933	51.21
317.147	39.93
317.361	46.95
317.575	35.02
317.789	39.25
318.003	42.88
318.217	51.78
318.431	37.36
318.645	53.18
318.859	47.75
319.073	32.2
319.287	14.46
319.5	2.32
319.714	-12.24
319.928	-1.75
320.142	-6.14
320.356	42.07
320.57	70.33
320.784	69.41
320.997	71.41
321.211	81.76
321.425	52.47
321.639	29.58
321.853	29.3
322.066	19.19
322.28	-6.42
322.494	0.62
322.707	1.51
322.921	2.67
323.135	-0.46
323.349	22.61
323.562	29.01
323.776	27.87
323.989	29.11
324.203	35.79
324.417	13.35
324.63	26.52
324.844	41.22
325.057	44.58
325.271	45.74
325.485	52.79
325.698	45.03
325.912	59.44
326.125	59.33
326.339	60.48
326.552	59.4
326.766	64.6
326.979	49.65
327.193	46.04
327.406	40.56
327.619	39.94
327.833	31.09
328.046	35.93
328.26	33.69
328.473	23.69
328.686	25.79
328.9	34.67
329.113	27.03
329.326	18.28
329.54	46.65
329.753	37.19
329.966	24.1
330.179	21.39
330.393	43.4
330.606	17.69
330.819	37.38
331.032	39.39
331.246	45.73
331.459	38.18
331.672	48.06
331.885	42.35
332.098	57.35
332.311	62.23
332.525	59.31
332.738	48.16
332.951	56.01
333.164	46.19
333.377	42.87
333.59	46.96
333.803	51.14
334.016	40.58
334.229	31.97
334.442	38.14
334.655	49.79
334.868	58.37
335.081	64.73
335.294	76.15
335.507	79.16
335.72	61.87
335.933	44.14
336.146	35.01
336.359	32.76
336.572	38.86
336.785	44.61
336.997	57.71
337.21	63.61
337.423	63.88
337.636	45.11
337.849	16.62
338.062	12.1
338.274	18.63
338.487	35.79
338.7	32.44
338.913	55.04
339.125	59.29
339.338	56.45
339.551	22.56
339.763	32.57
339.976	27.03
340.189	18.91
340.402	19.47
340.614	23.85
340.827	23.35
341.039	10.44
341.252	6.09
341.465	-12.16
341.677	-13.06
341.89	-12.54
342.102	12.52
342.315	29.88
342.527	34.62
342.74	39.73
342.952	39.01
343.165	34.16
343.377	29.03
343.59	24.49
343.802	20.73
344.015	21.03
344.227	23.7
344.44	8.59
344.652	28.29
344.864	31.51
345.077	29.08
345.289	28.77
345.502	30.65
345.714	22.93
345.926	23.7
346.139	27.43
346.351	21.51
346.563	20.08
346.775	17.47
346.988	13.37
347.2	6.55
347.412	23.43
347.624	25.77
347.837	21.85
348.049	20.54
348.261	27.36
348.473	18.04
348.685	32.42
348.897	49.26
349.11	49.81
349.322	33.69
349.534	35.55
349.746	41.79
349.958	40.75
350.17	55.41
350.382	61.7
350.594	57.22
350.806	48.88
351.018	36.86
351.23	21.95
351.442	13.34
351.654	38.47
351.866	14.31
352.078	20.04
352.29	16.83
352.502	19.8
352.714	11.2
352.926	29.06
353.138	41.14
353.35	49.41
353.561	54.05
353.773	52.38
353.985	43.95
354.197	32.71
354.409	31.21
354.621	37.22
354.832	38.51
355.044	39.18
355.256	42.26
355.468	42.22
355.679	47.08
355.891	50.84
356.103	55.79
356.314	56.32
356.526	62.27
356.738	54.02
356.949	54.46
357.161	51.79
357.373	46.3
357.584	37.03
357.796	42.44
358.008	46.56
358.219	37.09
358.431	34.1
358.642	32.73
358.854	32.49
359.065	21.39
359.277	34.01
359.488	48.76
359.7	58.89
359.911	52.47
360.123	60.69
360.334	54.54
360.546	41.23
360.757	39.3
360.969	37.17
361.18	35.95
361.391	30.76
361.603	28.46
361.814	21.1
362.025	35.58
362.237	33.62
362.448	30.41
362.659	16.09
362.871	18.15
363.082	2.63
363.293	5.58
363.504	20.8
363.716	34.71
363.927	21.11
364.138	33.52
364.349	18.18
364.56	9.8
364.772	9.84
364.983	29.71
365.194	32.76
365.405	45.49
365.616	26.61
365.827	32.7
366.038	30.92
366.25	20.19
366.461	11.91
366.672	36.79
366.883	33.16
367.094	36.34
367.305	51.74
367.516	44.3
367.727	40.23
367.938	50.05
368.149	58.78
368.36	40.3
368.571	45.28
368.781	42.72
368.992	33.17
369.203	12.96
369.414	16.93
369.625	10.13
369.836	10.33
370.047	20.23
370.258	29.41
370.468	12.4
370.679	17.89
370.89	18.11
371.101	-7.01
371.312	-7.01
371.522	8.23
371.733	19.74
371.944	23.53
372.155	34.32
372.365	17.7
372.576	21.97
372.787	11.3
372.997	14.24
373.208	17.57
373.419	30.27
373.629	29.07
373.84	26.24
374.05	22.74
374.261	19.99
374.472	31.09
374.682	17.04
374.893	28.06
375.103	24.52
375.314	30.23
375.524	27.17
375.735	44.3
375.945	38.93
376.156	41.39
376.366	44.04
376.577	26.17
376.787	22.71
376.997	30.16
377.208	29.29
377.418	28.57
377.629	38.5
377.839	55.04
378.049	45.26
378.26	48.83
378.47	44.11
378.68	62.34
378.89	46.58
379.101	47.52
379.311	38.51
379.521	37.07
379.732	22.29
379.942	28.85
380.152	24.93
380.362	28.82
380.572	22.23
380.783	17.73
380.993	9.67
381.203	7.57
381.413	7.78
381.623	20.21
381.833	23.22
382.043	26.18
382.253	29.33
382.463	24.35
382.674	30.6
382.884	24.38
383.094	18.45
383.304	26.59
383.514	31.41
383.724	18.72
383.934	22.44
384.144	18.05
384.353	8.66
384.563	10.61
384.773	15.53
384.983	12.96
385.193	12.34
385.403	10.68
385.613	14.39
385.823	14.2
386.033	11.5
386.242	22.3
386.452	21.1
386.662	18.78
386.872	20.48
387.082	20.49
387.291	7.93
387.501	12.41
387.711	7.18
387.921	4.6
388.13	7.25
388.34	9.85
388.55	9.61
388.759	9.68
388.969	8.78
389.179	12.26
389.388	17.74
389.598	17.01
389.807	18.73
390.017	17
390.227	14.53
390.436	11.64
390.646	10.61
390.855	7.09
391.065	5.84
391.274	5.54
391.484	5.23
391.693	6.06
391.903	9.78
392.112	11.07
392.322	9
392.531	8.19
392.74	6.82
392.95	5.79
393.159	6.41
393.369	7.04
393.578	6.93
393.787	7.9
393.997	7.8
394.206	8.12
394.415	7.85
394.625	7.9
394.834	6.75
395.043	6.52
395.252	6.29
395.462	7.07
395.671	7.23
395.88	8.45
396.089	8.96
396.298	8.49
396.508	8.14
396.717	7.81
396.926	6.98
397.135	5.99
397.344	5.52
397.553	5.07
397.762	5.08
397.971	5.4
398.181	5.56
398.39	5.82
398.599	6.16
398.808	6.44
399.017	6.16
399.226	6.32
399.435	6.08
399.644	6.15
399.853	6.05
400.062	6.09
400.27	5.53
400.479	5.6
400.688	5.42
400.897	5.35
401.106	5.25
401.315	5.66
401.524	5.95
401.733	5.77
401.941	5.76
402.15	5.67
402.359	5.4
402.568	5.08
402.777	4.98
402.985	4.86
403.194	5.08
403.403	5.26
403.612	5.3
403.82	5.36
404.029	5.63
404.238	5.63
404.446	5.71
404.655	5.69
404.864	5.78
405.072	5.65
405.281	5.51
405.489	5.19
405.698	5.17
405.906	5.14
406.115	4.94
406.324	4.97
406.532	4.91
406.741	4.85
406.949	4.9
407.158	4.9
407.366	4.79
407.574	5.03
407.783	4.97
407.991	4.88
408.2	4.97
408.408	5.06
408.617	4.99
408.825	4.95
409.033	4.93
409.242	4.92
409.45	4.87
409.658	4.73
409.867	4.81
410.075	4.75
410.283	4.69
410.491	4.62
410.7	4.66
410.908	4.63
411.116	4.62
411.324	4.53
411.533	4.54
411.741	4.45
411.949	4.44
412.157	4.54
412.365	4.74
412.573	4.61
412.781	4.71
412.99	4.77
413.198	4.72
413.406	4.61
413.614	4.8
413.822	4.86
414.03	4.76
414.238	4.64
414.446	4.66
414.654	4.54
414.862	4.56
415.07	4.5
415.278	4.56
415.486	4.51
415.694	4.37
415.902	4.28
416.109	4.42
416.317	4.59
416.525	4.49
416.733	4.64
416.941	4.65
417.149	4.48
417.357	4.41
417.564	4.41
417.772	4.37
417.98	4.42
418.188	4.64
418.395	4.37
418.603	4.37
418.811	4.5
419.019	4.31
419.226	4.19
419.434	4.49
419.642	4.66
419.849	4.5
420.057	4.54
420.265	4.65
420.472	4.43
420.68	4.31
420.887	4.39
421.095	4.49
421.302	4.35
421.51	4.34
421.717	4.24
421.925	4.17
422.132	4.2
422.34	4.08
422.547	4.12
422.755	4.28
422.962	4.36
423.17	4.21
423.377	4.33
423.585	4.39
423.792	4.35
423.999	4.25
424.207	4.18
424.414	4.03
424.621	3.95
424.829	3.86
425.036	3.99
425.243	4.12
425.451	4.11
425.658	4.04
425.865	4.13
426.072	4
426.28	3.98
426.487	4.18
426.694	4.21
426.901	4.13
427.108	4.25
427.315	4.28
427.523	4.06
427.73	4.01
427.937	3.9
428.144	3.99
428.351	3.73
428.558	3.88
428.765	3.9
428.972	4.1
429.179	3.88
429.386	4.11
429.593	4.01
429.8	4.1
430.007	3.94
430.214	4.06
430.421	3.96
430.628	4.08
430.835	4.02
431.042	4.1
431.249	4.14
431.456	4.18
431.662	4.18
431.869	4.23
432.076	4.18
432.283	4.07
432.49	4.12
432.697	4.14
432.903	4.21
433.11	4.33
433.317	4.27
433.524	4.2
433.73	4.15
433.937	4.07
434.144	4.03
434.35	4.02
434.557	4.02
434.764	3.93
434.97	3.94
435.177	4.05
435.384	3.87
435.59	3.92
435.797	3.88
436.003	3.9
436.21	3.6
436.416	3.68
436.623	3.65
436.829	3.65
437.036	3.58
437.242	3.7
437.449	3.76
437.655	3.85
437.862	3.99
438.068	3.99
438.275	4.02
438.481	3.98
438.687	3.95
438.894	3.91
439.1	3.89
439.307	3.83
439.513	3.94
439.719	3.96
439.926	3.87
440.132	4.11
440.338	4.14
440.544	4.01
440.751	3.88
440.957	3.98
441.163	3.69
441.369	3.7
441.575	3.75
441.782	3.93
441.988	3.86
442.194	3.95
442.4	3.96
442.606	3.92
442.812	3.86
443.018	3.9
443.224	3.91
443.431	3.97
443.637	4.12
443.843	4.01
444.049	4
444.255	3.93
444.461	3.74
444.667	3.63
444.873	3.69
445.079	3.78
445.284	3.79
445.49	3.91
445.696	3.89
445.902	3.89
446.108	3.85
446.314	3.81
446.52	3.84
446.726	3.9
446.931	3.95
447.137	3.86
447.343	3.83
447.549	3.62
447.755	3.56
447.96	3.47
448.166	3.59
448.372	3.7
448.578	3.8
448.783	3.89
448.989	3.99
449.195	3.86
449.4	3.88
449.606	3.94
449.812	3.86
450.017	3.76
450.223	3.8
450.428	3.72
450.634	3.72
450.84	3.76
451.045	3.78
451.251	3.85
451.456	3.94
451.662	3.92
451.867	4.02
452.073	3.95
452.278	3.9
452.483	3.86
452.689	3.89
452.894	3.81
453.1	3.89
453.305	3.93
453.51	3.95
453.716	3.86
453.921	3.89
454.127	3.83
454.332	3.75
454.537	3.72
454.742	3.7
454.948	3.63
455.153	3.72
455.358	3.73
455.563	3.78
455.769	3.82
455.974	3.8
456.179	3.7
456.384	3.62
456.589	3.65
456.795	3.56
457	3.56
457.205	3.42
457.41	3.43
457.615	3.34
457.82	3.44
458.025	3.39
458.23	3.61
458.435	3.67
458.64	3.55
458.845	3.57
459.05	3.51
459.255	3.5
459.46	3.51
459.665	3.72
459.87	3.76
460.075	3.97
460.28	3.92
460.485	3.93
460.69	3.89
460.895	3.82
461.099	3.77
461.304	3.78
461.509	3.76
461.714	3.69
461.919	3.8
462.123	3.76
462.328	3.7
462.533	3.73
462.738	3.69
462.942	3.61
463.147	3.62
463.352	3.63
463.556	3.62
463.761	3.62
463.966	3.51
464.17	3.52
464.375	3.6
464.58	3.63
464.784	3.76
464.989	3.9
465.193	3.88
465.398	3.91
465.602	3.95
465.807	3.79
466.011	3.72
466.216	3.65
466.42	3.65
466.625	3.54
466.829	3.61
467.034	3.73
467.238	3.8
467.443	3.82
467.647	3.8
467.851	3.83
468.056	3.72
