Data from Ofav_PP_Phys_360_Reflection_2.txt Node
Date: Tue Jul 27 19:08:52 EDT 2021
User: USUARIO
Spectrometer: FLMT01687
Trigger mode: 0
Integration Time (sec): 8.500000E-1
Scans to average: 2
Electric dark correction enabled: true
Nonlinearity correction enabled: false
Boxcar width: 2
XAxis mode: Wavelengths
Number of Pixels in Spectrum: 3648
>>>>>Begin Spectral Data<<<<<
179.494	-1942.96
179.716	-697.04
179.937	-507.98
180.158	-420.18
180.38	-477.96
180.601	-389.92
180.823	8.16
181.044	24.51
181.265	-6.03
181.486	-133.47
181.708	-27.4
181.929	-51.66
182.15	-22.65
182.372	-122.11
182.593	-62.19
182.814	16.51
183.035	39.68
183.257	39.37
183.478	28.51
183.699	29.61
183.92	63.17
184.141	59.34
184.363	69.75
184.584	73.46
184.805	91.76
185.026	48.42
185.247	48.77
185.468	35.84
185.689	23.87
185.91	-0.47
186.132	4.93
186.353	10.44
186.574	1.62
186.795	-8.56
187.016	-2.99
187.237	-0.47
187.458	-5.29
187.679	13.85
187.9	24.57
188.121	38.76
188.342	59.4
188.563	94.58
188.784	96
189.005	103.14
189.226	105.76
189.447	81.25
189.667	75.42
189.888	75.44
190.109	72.42
190.33	62.68
190.551	57.68
190.772	50.44
190.993	36.72
191.214	39.38
191.434	37.45
191.655	51.42
191.876	57.7
192.097	64.3
192.318	61.3
192.538	61.73
192.759	61.53
192.98	44.34
193.201	44.44
193.421	55.34
193.642	44.52
193.863	27.33
194.083	38.56
194.304	18.47
194.525	-10.67
194.745	-59.29
194.966	-93.19
195.187	-116.65
195.407	-71.09
195.628	-30.7
195.848	36.42
196.069	76.22
196.29	107.37
196.51	108.16
196.731	81.52
196.951	84.83
197.172	86.38
197.392	74.42
197.613	90.34
197.833	77.86
198.054	85.03
198.274	66.05
198.495	82.54
198.715	90.22
198.936	119.3
199.156	114.1
199.377	156.74
199.597	218.73
199.817	131.66
200.038	181.11
200.258	88.01
200.479	50.66
200.699	31.69
200.919	9.44
201.14	24.21
201.36	12.91
201.58	13.62
201.801	-1.48
202.021	21.83
202.241	22.73
202.461	12.45
202.682	-15.87
202.902	-15.97
203.122	-11.43
203.342	-10.62
203.563	36.2
203.783	49.27
204.003	40
204.223	35.49
204.443	24.72
204.663	-6.53
204.884	-10.24
205.104	11.79
205.324	12.18
205.544	12.03
205.764	3.69
205.984	16.23
206.204	5.79
206.424	-3.7
206.644	14.79
206.864	23.3
207.084	21.45
207.304	47.55
207.525	56.92
207.745	75.18
207.964	83.18
208.184	84.98
208.404	57.07
208.624	50.81
208.844	46.55
209.064	37.47
209.284	29.4
209.504	32.48
209.724	21.89
209.944	-36.37
210.164	-27.09
210.384	42.13
210.604	5.31
210.823	8
211.043	41.2
211.263	20.58
211.483	4.39
211.703	21.21
211.922	12.61
212.142	15.45
212.362	25.64
212.582	33.03
212.801	45.06
213.021	73.74
213.241	51.17
213.461	29.03
213.68	15.98
213.9	-14.06
214.12	-6.68
214.339	30.79
214.559	57.91
214.779	63.41
214.998	37.5
215.218	19.5
215.438	-6.21
215.657	8.13
215.877	-6.64
216.096	16.96
216.316	41.17
216.535	42.8
216.755	12.19
216.974	40.63
217.194	51.47
217.413	45.98
217.633	54.13
217.852	52.93
218.072	39.9
218.291	25.15
218.511	15.35
218.73	17.27
218.95	20.04
219.169	31.1
219.389	31.35
219.608	36.93
219.827	62.09
220.047	99.18
220.266	76.42
220.485	75.71
220.705	60.18
220.924	45.33
221.143	29.65
221.363	11.53
221.582	-3.46
221.801	12.63
222.021	30.35
222.24	41.84
222.459	42.18
222.678	59.35
222.897	55.11
223.117	67.41
223.336	54.39
223.555	30.43
223.774	33.33
223.993	38.1
224.213	17.99
224.432	20.25
224.651	54.29
224.87	45.77
225.089	40.09
225.308	40.03
225.527	45.45
225.746	32.84
225.965	37.86
226.184	51.91
226.404	41.37
226.623	35.73
226.842	36.27
227.061	31.45
227.28	21.16
227.499	32.47
227.718	45.08
227.936	43.03
228.155	54.71
228.374	60.47
228.593	66.61
228.812	61.86
229.031	66.65
229.25	49.27
229.469	45.07
229.688	23
229.907	2.49
230.125	17
230.344	40.17
230.563	44.71
230.782	52.15
231.001	49.55
231.22	48.05
231.438	35.48
231.657	31.58
231.876	18.45
232.095	35.81
232.313	34.76
232.532	37.99
232.751	40.56
232.969	53.19
233.188	47.72
233.407	39.06
233.625	49.78
233.844	32.67
234.063	30.16
234.281	37.55
234.5	40.22
234.719	56.58
234.937	54.05
235.156	49.75
235.374	38.54
235.593	44.64
235.811	14.54
236.03	13.98
236.249	15.37
236.467	22.82
236.686	33.33
236.904	36.01
237.123	35.88
237.341	42.4
237.559	33.13
237.778	29.87
237.996	30.89
238.215	31.58
238.433	40.24
238.652	29.71
238.87	17.09
239.088	16.24
239.307	24.34
239.525	-14.77
239.743	7.68
239.962	12.83
240.18	13.02
240.398	17.32
240.617	29.38
240.835	25.41
241.053	26.64
241.271	29.01
241.49	32.6
241.708	47.53
241.926	30.56
242.144	8.31
242.363	24.76
242.581	20.47
242.799	1.87
243.017	12.84
243.235	62.74
243.453	19.63
243.672	42.94
243.89	40.04
244.108	38.52
244.326	16.28
244.544	30.13
244.762	16.84
244.98	30.74
245.198	33.27
245.416	61.01
245.634	67.85
245.852	88.43
246.07	100.71
246.288	76.55
246.506	73.15
246.724	59.88
246.942	43.36
247.16	40.47
247.378	43.23
247.596	41.54
247.814	41.01
248.032	38.46
248.25	33.1
248.468	44.51
248.685	42.21
248.903	33.27
249.121	47.28
249.339	40.73
249.557	36.25
249.775	22.98
249.992	20.5
250.21	6.43
250.428	4.97
250.646	-9.37
250.863	14.05
251.081	46.21
251.299	70.36
251.517	88.88
251.734	118.55
251.952	125.07
252.17	114.2
252.387	75.65
252.605	61.17
252.823	48.54
253.04	55.02
253.258	61.44
253.475	71.84
253.693	82.82
253.911	97.06
254.128	86.12
254.346	78.29
254.563	76.87
254.781	53.18
254.998	44.6
255.216	32.57
255.433	30.14
255.651	49.43
255.868	56.19
256.086	38.34
256.303	36.97
256.521	48.23
256.738	43.32
256.956	49.85
257.173	47.02
257.39	47.53
257.608	49.65
257.825	53.45
258.043	45.42
258.26	54.27
258.477	46.09
258.695	37.91
258.912	33.68
259.129	50.08
259.346	52.46
259.564	83.71
259.781	93.25
259.998	69.78
260.216	58.74
260.433	58.95
260.65	52.05
260.867	35.32
261.084	27.18
261.302	11.78
261.519	20.26
261.736	24.59
261.953	29.76
262.17	45.43
262.387	40.77
262.604	45.9
262.822	42.49
263.039	51.02
263.256	43.27
263.473	57.16
263.69	49.07
263.907	27.9
264.124	24.88
264.341	30.91
264.558	31.24
264.775	22.78
264.992	49.26
265.209	46
265.426	44.04
265.643	45.18
265.86	30
266.077	7.41
266.294	12.32
266.51	20.28
266.727	17.32
266.944	29.83
267.161	5.1
267.378	-5.75
267.595	-9.18
267.812	-7.06
268.028	13.64
268.245	64.94
268.462	77.66
268.679	67.14
268.896	60.52
269.112	34.99
269.329	38.29
269.546	25.91
269.763	16.86
269.979	18.1
270.196	29.97
270.413	39.46
270.629	42.24
270.846	63.27
271.063	36.53
271.279	31.04
271.496	13.09
271.712	-19.09
271.929	-55.13
272.146	-42.89
272.362	-7.09
272.579	-8.71
272.795	18.64
273.012	28.8
273.228	34.23
273.445	21.08
273.661	26.87
273.878	19.29
274.094	9.23
274.311	12.96
274.527	28.11
274.744	33.08
274.96	25.34
275.177	26.96
275.393	28.6
275.609	16.12
275.826	11.96
276.042	19.82
276.259	32.59
276.475	29.76
276.691	21.88
276.908	17.62
277.124	34.56
277.34	49.15
277.557	38.33
277.773	43.89
277.989	50.14
278.205	36.48
278.422	25.14
278.638	36.73
278.854	56.99
279.07	49.99
279.286	46.53
279.503	48.09
279.719	58.2
279.935	48.8
280.151	53.02
280.367	54
280.583	48.99
280.799	41.67
281.016	33.29
281.232	27.78
281.448	28.59
281.664	19.89
281.88	7.97
282.096	8.8
282.312	18.45
282.528	22.69
282.744	2.21
282.96	16.14
283.176	11.49
283.392	15.87
283.608	23.32
283.824	45.29
284.04	14.61
284.256	22.15
284.471	19.81
284.687	7.32
284.903	11.03
285.119	33.59
285.335	23.86
285.551	21.72
285.767	39.13
285.982	37.82
286.198	42.09
286.414	39.62
286.63	33.57
286.846	31.32
287.061	21.16
287.277	16.7
287.493	20.04
287.709	22.87
287.924	20.83
288.14	37.69
288.356	46.91
288.571	69.89
288.787	64.66
289.003	54.77
289.218	42.8
289.434	42.96
289.65	15.81
289.865	9.94
290.081	14.29
290.296	9.67
290.512	2.82
290.727	15.44
290.943	41.76
291.159	62.58
291.374	98.87
291.59	76.33
291.805	72.09
292.021	50.38
292.236	48.15
292.451	29.08
292.667	37.32
292.882	38.97
293.098	27.24
293.313	42.97
293.529	57.45
293.744	38.42
293.959	38.11
294.175	44.48
294.39	21.62
294.605	16.2
294.821	26.48
295.036	12.28
295.251	14.48
295.467	12.92
295.682	2.72
295.897	20.59
296.112	49.56
296.328	51.62
296.543	69.36
296.758	64.9
296.973	59.78
297.188	58.68
297.404	43.83
297.619	40.27
297.834	34.08
298.049	30.72
298.264	16.1
298.479	29.31
298.694	12.94
298.909	10.02
299.125	10.01
299.34	16.28
299.555	27.08
299.77	33.42
299.985	44.5
300.2	56.37
300.415	52.03
300.63	27.54
300.845	36.52
301.06	32.47
301.275	25
301.49	24.95
301.704	31.62
301.919	31.25
302.134	48.87
302.349	49
302.564	61.78
302.779	56.39
302.994	57.95
303.209	47.13
303.423	40.4
303.638	24.01
303.853	28.59
304.068	46.01
304.283	47.91
304.497	39.97
304.712	41.36
304.927	29.84
305.142	12.02
305.356	-4.03
305.571	13.98
305.786	18.15
306	24.88
306.215	28.77
306.43	39.44
306.644	45.57
306.859	49.36
307.074	56.28
307.288	58.73
307.503	63.61
307.717	55.8
307.932	46.73
308.147	59.93
308.361	54.65
308.576	49.99
308.79	58.31
309.005	55.2
309.219	48.69
309.434	39.54
309.648	43.52
309.863	35.93
310.077	37.27
310.292	35.12
310.506	27.36
310.72	21.66
310.935	12.77
311.149	24.84
311.364	0.02
311.578	37.84
311.792	34.56
312.007	41.52
312.221	37.91
312.435	38.36
312.649	34.44
312.864	0.86
313.078	-20.28
313.292	-33.38
313.507	1.35
313.721	24.25
313.935	49.85
314.149	58.44
314.363	54.13
314.578	58.8
314.792	50.12
315.006	60.11
315.22	62.74
315.434	65.38
315.648	47.06
315.862	46.6
316.077	43.71
316.291	45.21
316.505	33.4
316.719	49.59
316.933	46.07
317.147	45.07
317.361	22.21
317.575	22.1
317.789	18.62
318.003	24.74
318.217	23.75
318.431	30.7
318.645	36.69
318.859	44.31
319.073	33.28
319.287	32.2
319.5	34.53
319.714	37.85
319.928	26.7
320.142	24.68
320.356	31.91
320.57	37.22
320.784	41.56
320.997	56.4
321.211	66.12
321.425	61.52
321.639	43.95
321.853	37.2
322.066	19.62
322.28	13.09
322.494	9.1
322.707	31.38
322.921	34.34
323.135	34.58
323.349	32.76
323.562	48.65
323.776	40.64
323.989	19.82
324.203	29.85
324.417	26.15
324.63	18.25
324.844	21.35
325.057	41.48
325.271	25.52
325.485	17.67
325.698	20.4
325.912	17.22
326.125	34.26
326.339	46.93
326.552	53.72
326.766	61.15
326.979	63.11
327.193	54.78
327.406	39.85
327.619	42.45
327.833	43.26
328.046	54.49
328.26	38.63
328.473	35.95
328.686	30.38
328.9	20.65
329.113	-2.55
329.326	-10.3
329.54	7.8
329.753	14.64
329.966	8.5
330.179	40.47
330.393	40
330.606	30.12
330.819	32.76
331.032	43.9
331.246	40.57
331.459	38.21
331.672	43
331.885	46.22
332.098	65.59
332.311	65.28
332.525	67.66
332.738	44.43
332.951	35.7
333.164	13.13
333.377	-17.65
333.59	-17.39
333.803	7.76
334.016	14.92
334.229	12.8
334.442	39.23
334.655	56.53
334.868	66.27
335.081	57.9
335.294	66.52
335.507	55.77
335.72	56.16
335.933	30.71
336.146	50.08
336.359	46.62
336.572	60.31
336.785	44.16
336.997	74.37
337.21	79.94
337.423	77.84
337.636	76.61
337.849	68.1
338.062	52.43
338.274	53.7
338.487	55.63
338.7	40.36
338.913	46.98
339.125	42.66
339.338	29.01
339.551	-2.35
339.763	18.5
339.976	23.12
340.189	27.6
340.402	27.8
340.614	40
340.827	37.18
341.039	32.35
341.252	16.24
341.465	-1.9
341.677	19.26
341.89	7.21
342.102	4.03
342.315	23.84
342.527	34.24
342.74	26.54
342.952	14.95
343.165	36.96
343.377	38.37
343.59	29.83
343.802	27.15
344.015	42.09
344.227	35.5
344.44	4.2
344.652	19.14
344.864	39.82
345.077	45.17
345.289	29.57
345.502	41.26
345.714	34.7
345.926	8.35
346.139	2.25
346.351	12.57
346.563	5.47
346.775	16.99
346.988	23.36
347.2	18.56
347.412	26.44
347.624	38.79
347.837	19.93
348.049	28.62
348.261	31.17
348.473	31.72
348.685	32.3
348.897	40.03
349.11	35.14
349.322	25.57
349.534	19.44
349.746	27.12
349.958	39.88
350.17	52.64
350.382	54.13
350.594	40.45
350.806	45.25
351.018	32.25
351.23	21.64
351.442	31.73
351.654	70.89
351.866	46.37
352.078	46.2
352.29	51.47
352.502	44.08
352.714	44.19
352.926	63.03
353.138	68.5
353.35	60.8
353.561	63.67
353.773	46.74
353.985	38.49
354.197	41.65
354.409	41.38
354.621	35.76
354.832	41.86
355.044	29.04
355.256	28.86
355.468	33.46
355.679	42.5
355.891	45.19
356.103	62.18
356.314	52.07
356.526	61.65
356.738	65.68
356.949	49.21
357.161	30.61
357.373	39.09
357.584	32.22
357.796	27.91
358.008	36.92
358.219	48.31
358.431	41.68
358.642	29.63
358.854	37.56
359.065	30.68
359.277	27.33
359.488	42.6
359.7	48.61
359.911	39.18
360.123	38.52
360.334	45.43
360.546	33.95
360.757	37.76
360.969	48.63
361.18	51.86
361.391	40
361.603	42.43
361.814	26.15
362.025	32.65
362.237	31.27
362.448	41.81
362.659	31.57
362.871	41.04
363.082	16.54
363.293	16.26
363.504	1.5
363.716	9.7
363.927	11.66
364.138	25
364.349	29
364.56	21.76
364.772	28.72
364.983	25.1
365.194	24.44
365.405	29.76
365.616	29.48
365.827	23.2
366.038	30.08
366.25	26.14
366.461	14.22
366.672	23.56
366.883	27.45
367.094	21.27
367.305	30.53
367.516	29.65
367.727	34.18
367.938	34.55
368.149	39.79
368.36	45.3
368.571	33.1
368.781	38.69
368.992	27.35
369.203	22.02
369.414	27.06
369.625	39.1
369.836	31.57
370.047	45.1
370.258	40.23
370.468	32.47
370.679	23.63
370.89	7.96
371.101	0.14
371.312	3.86
371.522	-7.21
371.733	7.24
371.944	16.96
372.155	32.13
372.365	29.71
372.576	38.6
372.787	35
372.997	38.08
373.208	28.62
373.419	28.81
373.629	29.86
373.84	24.32
374.05	25.52
374.261	25.1
374.472	31.31
374.682	28.21
374.893	41.62
375.103	39.92
375.314	47.53
375.524	47.77
375.735	43.39
375.945	30.12
376.156	31.25
376.366	21.5
376.577	25.16
376.787	26.15
376.997	37.58
377.208	44.95
377.418	46.49
377.629	44.55
377.839	62.49
378.049	50.43
378.26	41.99
378.47	39.73
378.68	40.84
378.89	31.03
379.101	28.68
379.311	26.47
379.521	27.13
379.732	23.77
379.942	26.22
380.152	27.86
380.362	32.9
380.572	24.1
380.783	28.09
380.993	17.17
381.203	9.63
381.413	-1.09
381.623	8.34
381.833	8.72
382.043	21.35
382.253	31.04
382.463	34.19
382.674	39.37
382.884	37.59
383.094	22.73
383.304	17.44
383.514	14.01
383.724	7.72
383.934	-1.34
384.144	-1.01
384.353	-1.74
384.563	2.89
384.773	3.1
384.983	9.55
385.193	13.58
385.403	19.64
385.613	19.91
385.823	20.86
386.033	17.94
386.242	23.73
386.452	19.72
386.662	24.71
386.872	24.62
387.082	24.31
387.291	10.76
387.501	12.08
387.711	4.96
387.921	6.77
388.13	9.58
388.34	17.01
388.55	13.84
388.759	12.76
388.969	11.4
389.179	11.23
389.388	13.08
389.598	16.52
389.807	17.54
390.017	16.77
390.227	16.95
390.436	15.21
390.646	13.15
390.855	11.88
391.065	8.59
391.274	6.25
391.484	4.31
391.693	3.79
391.903	5.52
392.112	7.57
392.322	8.08
392.531	7.8
392.74	7.83
392.95	7.6
393.159	8.63
393.369	8.36
393.578	10.49
393.787	10.31
393.997	10.04
394.206	10.36
394.415	10.88
394.625	10.12
394.834	9.6
395.043	9.62
395.252	9.77
395.462	9.54
395.671	8.94
395.88	10.13
396.089	10.41
396.298	9.59
396.508	9.4
396.717	9.73
396.926	9.09
397.135	8.01
397.344	7.36
397.553	7.43
397.762	6.59
397.971	6.55
398.181	7.26
398.39	7.45
398.599	7.33
398.808	7.76
399.017	8.21
399.226	8.23
399.435	8.48
399.644	8.82
399.853	8.88
400.062	8.66
400.27	8.33
400.479	8.08
400.688	7.85
400.897	7.82
401.106	7.72
401.315	8.21
401.524	8.31
401.733	8.24
401.941	8.31
402.15	8.25
402.359	7.71
402.568	7.65
402.777	7.74
402.985	7.7
403.194	8.03
403.403	8.22
403.612	8.15
403.82	8.09
404.029	8.07
404.238	7.92
404.446	7.93
404.655	7.98
404.864	7.96
405.072	7.88
405.281	7.74
405.489	7.45
405.698	7.58
405.906	7.51
406.115	7.34
406.324	7.41
406.532	7.44
406.741	7.26
406.949	7.27
407.158	7.29
407.366	7.07
407.574	7.22
407.783	7.23
407.991	7.16
408.2	7.28
408.408	7.47
408.617	7.42
408.825	7.51
409.033	7.6
409.242	7.51
409.45	7.4
409.658	7.29
409.867	7.15
410.075	6.98
410.283	6.92
410.491	6.85
410.7	6.89
410.908	6.93
411.116	6.96
411.324	6.87
411.533	6.71
411.741	6.58
411.949	6.56
412.157	6.62
412.365	6.77
412.573	6.81
412.781	6.82
412.99	6.79
413.198	6.9
413.406	6.82
413.614	7.01
413.822	7.13
414.03	7.14
414.238	6.97
414.446	6.92
414.654	6.77
414.862	6.8
415.07	6.77
415.278	6.78
415.486	6.69
415.694	6.74
415.902	6.64
416.109	6.66
416.317	6.7
416.525	6.7
416.733	6.69
416.941	6.77
417.149	6.64
417.357	6.67
417.564	6.61
417.772	6.68
417.98	6.67
418.188	6.85
418.395	6.56
418.603	6.83
418.811	6.88
419.019	6.76
419.226	6.72
419.434	7.01
419.642	6.94
419.849	6.84
420.057	6.71
420.265	6.78
420.472	6.5
420.68	6.43
420.887	6.48
421.095	6.48
421.302	6.35
421.51	6.38
421.717	6.35
421.925	6.3
422.132	6.35
422.34	6.27
422.547	6.3
422.755	6.49
422.962	6.4
423.17	6.44
423.377	6.49
423.585	6.56
423.792	6.46
423.999	6.47
424.207	6.34
424.414	6.2
424.621	6.15
424.829	6.1
425.036	6.07
425.243	6.19
425.451	6.31
425.658	6.15
425.865	6.11
426.072	6.1
426.28	6.18
426.487	6.29
426.694	6.39
426.901	6.53
427.108	6.53
427.315	6.43
427.523	6.14
427.73	6.02
427.937	5.76
428.144	5.8
428.351	5.75
428.558	5.96
428.765	6.03
428.972	6.04
429.179	6.04
429.386	6.16
429.593	5.87
429.8	5.89
430.007	5.95
430.214	5.9
430.421	5.9
430.628	6.07
430.835	6.17
431.042	6.11
431.249	6.28
431.456	6.27
431.662	6.38
431.869	6.5
432.076	6.47
432.283	6.16
432.49	5.99
432.697	5.91
432.903	5.85
433.11	6.12
433.317	6.22
433.524	6.46
433.73	6.36
433.937	6.17
434.144	5.97
434.35	6.04
434.557	5.95
434.764	6.01
434.97	6
435.177	6.17
435.384	6.04
435.59	6.07
435.797	6.09
436.003	6.21
436.21	5.87
436.416	5.9
436.623	5.8
436.829	5.7
437.036	5.58
437.242	5.81
437.449	5.77
437.655	5.89
437.862	6.04
438.068	6.02
438.275	5.96
438.481	6.09
438.687	6.03
438.894	6.03
439.1	6.22
439.307	6.24
439.513	6.18
439.719	6.26
439.926	6.14
440.132	6.18
440.338	6.05
440.544	5.92
440.751	5.68
440.957	5.76
441.163	5.5
441.369	5.61
441.575	5.64
441.782	5.9
441.988	5.9
442.194	6.01
442.4	6.08
442.606	6.17
442.812	6.06
443.018	5.96
443.224	5.95
443.431	5.83
443.637	5.84
443.843	5.69
444.049	5.84
444.255	5.76
444.461	5.74
444.667	5.6
444.873	5.7
445.079	5.71
445.284	5.77
445.49	5.84
445.696	5.94
445.902	5.95
446.108	5.88
446.314	5.89
446.52	5.9
446.726	5.93
446.931	5.94
447.137	5.91
447.343	5.81
447.549	5.83
447.755	5.79
447.96	5.86
448.166	5.85
448.372	5.96
448.578	5.87
448.783	5.92
448.989	5.9
449.195	5.82
449.4	5.79
449.606	5.76
449.812	5.67
450.017	5.59
450.223	5.65
450.428	5.61
450.634	5.66
450.84	5.67
451.045	5.8
451.251	5.89
451.456	5.91
451.662	5.9
451.867	5.93
452.073	5.77
452.278	5.76
452.483	5.81
452.689	5.91
452.894	5.91
453.1	5.93
453.305	5.91
453.51	5.87
453.716	5.76
453.921	5.8
454.127	5.89
454.332	5.8
454.537	5.84
454.742	5.76
454.948	5.73
455.153	5.68
455.358	5.76
455.563	5.81
455.769	5.89
455.974	5.84
456.179	5.83
456.384	5.7
456.589	5.65
456.795	5.56
457	5.61
457.205	5.47
457.41	5.57
457.615	5.53
457.82	5.56
458.025	5.43
458.23	5.56
458.435	5.59
458.64	5.52
458.845	5.61
459.05	5.65
459.255	5.72
459.46	5.68
459.665	5.74
459.87	5.75
460.075	5.89
460.28	5.81
460.485	5.87
460.69	5.79
460.895	5.8
461.099	5.7
461.304	5.76
461.509	5.71
461.714	5.85
461.919	5.83
462.123	5.89
462.328	5.89
462.533	5.93
462.738	5.9
462.942	5.83
463.147	5.9
463.352	5.83
463.556	5.91
463.761	5.78
463.966	5.76
464.17	5.83
464.375	5.86
464.58	5.77
464.784	5.91
464.989	6.03
465.193	5.94
465.398	6.06
465.602	6.06
465.807	6.02
466.011	5.91
466.216	5.83
466.42	5.78
466.625	5.74
466.829	5.77
467.034	5.91
467.238	5.97
467.443	5.98
467.647	5.97
467.851	5.98
468.056	5.87
468.26	5.88
468.464	5.87
