Data from Ofav_PP_Phys_369_Reflection_3.txt Node
Date: Tue Jul 27 19:07:41 EDT 2021
User: USUARIO
Spectrometer: FLMT01687
Trigger mode: 0
Integration Time (sec): 8.500000E-1
Scans to average: 2
Electric dark correction enabled: true
Nonlinearity correction enabled: false
Boxcar width: 2
XAxis mode: Wavelengths
Number of Pixels in Spectrum: 3648
>>>>>Begin Spectral Data<<<<<
179.494	-1626.67
179.716	-551.61
179.937	-365.55
180.158	-326.48
180.38	-337.13
180.601	-250.53
180.823	40.37
181.044	67.39
181.265	40.46
181.486	14.81
181.708	27.33
181.929	28.64
182.15	73.02
182.372	120.21
182.593	51.17
182.814	88.81
183.035	95.86
183.257	72.47
183.478	68.97
183.699	60.43
183.92	65
184.141	62.16
184.363	67.65
184.584	78.35
184.805	100.59
185.026	65.59
185.247	70.2
185.468	53.85
185.689	36.64
185.91	4.14
186.132	7.72
186.353	16.94
186.574	25.84
186.795	5.57
187.016	20.59
187.237	24.31
187.458	31.63
187.679	30.56
187.9	24.77
188.121	25.1
188.342	34.18
188.563	-3.35
188.784	32.65
189.005	66.33
189.226	47.62
189.447	35.9
189.667	49.74
189.888	48.85
190.109	51.22
190.33	122.67
190.551	121.35
190.772	94.72
190.993	77.86
191.214	72.9
191.434	55.87
191.655	59.55
191.876	57.85
192.097	35.3
192.318	24.09
192.538	18.74
192.759	16.88
192.98	27.63
193.201	51.19
193.421	62.06
193.642	48.39
193.863	43.52
194.083	51.78
194.304	46.39
194.525	28.5
194.745	2.71
194.966	-34.17
195.187	-63.05
195.407	-48.1
195.628	17.18
195.848	49.3
196.069	69
196.29	77.02
196.51	28.21
196.731	8.06
196.951	5.34
197.172	-2.85
197.392	30.2
197.613	60.01
197.833	49.85
198.054	61.65
198.274	28.97
198.495	25.41
198.715	7.38
198.936	13.94
199.156	38.99
199.377	108.13
199.597	110.87
199.817	82.18
200.038	131.53
200.258	77.86
200.479	34.87
200.699	54.19
200.919	46.64
201.14	37.35
201.36	38.9
201.58	61.31
201.801	55.72
202.021	41.85
202.241	40.13
202.461	28.63
202.682	4.31
202.902	-16.33
203.122	30.87
203.342	44.64
203.563	49.49
203.783	33.32
204.003	38.33
204.223	28.22
204.443	26.06
204.663	39.34
204.884	85.13
205.104	58.11
205.324	55.1
205.544	58.83
205.764	38.28
205.984	33.09
206.204	60.97
206.424	68.22
206.644	56.12
206.864	60.41
207.084	47.07
207.304	48.41
207.525	43.55
207.745	47.79
207.964	59.37
208.184	56.19
208.404	42.09
208.624	55.19
208.844	55.65
209.064	55.4
209.284	72.25
209.504	72.01
209.724	60.9
209.944	66.46
210.164	61.33
210.384	32.09
210.604	69.62
210.823	74.02
211.043	60.17
211.263	53.94
211.483	57.26
211.703	60.14
211.922	44.47
212.142	68.06
212.362	60.62
212.582	66.62
212.801	49.33
213.021	50.62
213.241	24.13
213.461	8.51
213.68	0.93
213.9	-26.26
214.12	5.89
214.339	21.34
214.559	22.44
214.779	13.84
214.998	20.43
215.218	-2.53
215.438	4.58
215.657	27.57
215.877	26.94
216.096	35.01
216.316	49.71
216.535	37.87
216.755	21.08
216.974	49.04
217.194	52.15
217.413	48.79
217.633	48.43
217.852	45.89
218.072	30.96
218.291	14.5
218.511	17.18
218.73	32.96
218.95	29.95
219.169	41.03
219.389	46.08
219.608	56.32
219.827	32.46
220.047	29.41
220.266	34.47
220.485	45.79
220.705	48.62
220.924	56.93
221.143	50.3
221.363	37.51
221.582	39.65
221.801	20.31
222.021	27.56
222.24	49.32
222.459	58.48
222.678	67.62
222.897	66.5
223.117	87.88
223.336	54.11
223.555	37.83
223.774	25.93
223.993	45.14
224.213	30.32
224.432	55.6
224.651	80.55
224.87	67.47
225.089	47.37
225.308	51.38
225.527	46.53
225.746	27.35
225.965	22.7
226.184	10.46
226.404	0.86
226.623	-0.72
226.842	2.8
227.061	0.63
227.28	18.47
227.499	16.6
227.718	0.53
227.936	-4.78
228.155	24.03
228.374	26.71
228.593	32.34
228.812	48.5
229.031	49.83
229.25	46.72
229.469	32.74
229.688	18.95
229.907	-2.16
230.125	2.63
230.344	3.02
230.563	41.4
230.782	55.16
231.001	45.55
231.22	41.42
231.438	39.36
231.657	16.74
231.876	4.16
232.095	23.38
232.313	48.82
232.532	44.74
232.751	27.09
232.969	32.55
233.188	29.89
233.407	7.85
233.625	36.69
233.844	37.55
234.063	31.11
234.281	37.11
234.5	37.07
234.719	41.3
234.937	36.81
235.156	27.16
235.374	19.5
235.593	23.04
235.811	11.9
236.03	16.15
236.249	27.2
236.467	39.85
236.686	38.87
236.904	40.86
237.123	43.01
237.341	45.35
237.559	32.82
237.778	36.03
237.996	22.44
238.215	34.27
238.433	32.1
238.652	27.82
238.87	22.73
239.088	21.39
239.307	24.68
239.525	4.79
239.743	1.91
239.962	3.64
240.18	15.2
240.398	-1.87
240.617	13.74
240.835	36.1
241.053	38.59
241.271	38.72
241.49	62.55
241.708	61.09
241.926	33.69
242.144	16.07
242.363	6.37
242.581	15.16
242.799	16.86
243.017	9.97
243.235	29.41
243.453	33.04
243.672	40.79
243.89	31.66
244.108	49.31
244.326	52.56
244.544	38.77
244.762	19.02
244.98	51.33
245.198	30.35
245.416	25.04
245.634	56.63
245.852	89.22
246.07	41.72
246.288	55.14
246.506	58.11
246.724	44.37
246.942	36.22
247.16	45.92
247.378	55.98
247.596	50.41
247.814	40.84
248.032	33.45
248.25	35.39
248.468	22.14
248.685	17.26
248.903	19.2
249.121	36.4
249.339	46.31
249.557	49.34
249.775	26.2
249.992	13.05
250.21	-8.45
250.428	-27
250.646	-52.32
250.863	-19.35
251.081	11.44
251.299	30.31
251.517	32.31
251.734	72.75
251.952	39.66
252.17	36.87
252.387	23.08
252.605	47.83
252.823	26.17
253.04	60.83
253.258	68.53
253.475	68.86
253.693	62.43
253.911	88.01
254.128	63.91
254.346	50.75
254.563	44.24
254.781	33.05
254.998	14.68
255.216	5.39
255.433	14.05
255.651	33.82
255.868	30.62
256.086	19.07
256.303	7.16
256.521	14.94
256.738	10.9
256.956	-1.54
257.173	6.55
257.39	22.53
257.608	28.11
257.825	41.58
258.043	50.33
258.26	56.42
258.477	51.41
258.695	49.98
258.912	45.83
259.129	61.73
259.346	65.19
259.564	97.48
259.781	116.1
259.998	85.06
260.216	76.57
260.433	75.41
260.65	76.55
260.867	55.44
261.084	60.95
261.302	49.34
261.519	64.85
261.736	31.93
261.953	38.79
262.17	35.61
262.387	37.14
262.604	35.81
262.822	49.38
263.039	33.32
263.256	41.62
263.473	54.64
263.69	55.19
263.907	25.4
264.124	17.86
264.341	21.45
264.558	10.14
264.775	-10.74
264.992	17.98
265.209	26.49
265.426	25.9
265.643	27.48
265.86	16.26
266.077	3.86
266.294	21.46
266.51	34.67
266.727	36.4
266.944	46.06
267.161	0.15
267.378	-12.68
267.595	-15.97
267.812	-3.11
268.028	24.94
268.245	91.4
268.462	89.67
268.679	77.99
268.896	57.71
269.112	28.45
269.329	31.01
269.546	31.19
269.763	9.39
269.979	19.92
270.196	29.79
270.413	32.66
270.629	30.53
270.846	63.25
271.063	40.55
271.279	32.55
271.496	22.35
271.712	15.38
271.929	-17.2
272.146	-12.3
272.362	21.96
272.579	32.37
272.795	52.31
273.012	57.86
273.228	59.82
273.445	59.14
273.661	65.8
273.878	59.47
274.094	53.24
274.311	47.45
274.527	28.1
274.744	24.31
274.96	13.26
275.177	9.91
275.393	8.74
275.609	15.18
275.826	14.79
276.042	4.54
276.259	24.91
276.475	18.04
276.691	14.17
276.908	13.73
277.124	28.77
277.34	25.61
277.557	29.35
277.773	43.55
277.989	44.67
278.205	50.44
278.422	49.56
278.638	49.98
278.854	51.89
279.07	61.09
279.286	52.8
279.503	46.39
279.719	55.25
279.935	55.15
280.151	55.97
280.367	46.24
280.583	56.64
280.799	49.68
281.016	39.61
281.232	26.8
281.448	33.5
281.664	21.33
281.88	12.8
282.096	17.03
282.312	19.32
282.528	30
282.744	39.54
282.96	39.82
283.176	52.84
283.392	72.65
283.608	52.18
283.824	50.14
284.04	31.23
284.256	27.78
284.471	14.38
284.687	18.97
284.903	10.36
285.119	20.89
285.335	17.8
285.551	18.74
285.767	33.62
285.982	27.26
286.198	45.2
286.414	37.93
286.63	36.56
286.846	11.12
287.061	11.56
287.277	-6.73
287.493	-6.2
287.709	-1.73
287.924	8.27
288.14	27.56
288.356	55.27
288.571	68.6
288.787	57.98
289.003	62.77
289.218	54.59
289.434	31.35
289.65	19.56
289.865	18.37
290.081	24.5
290.296	36.54
290.512	43.26
290.727	56.8
290.943	82.7
291.159	104.92
291.374	81.74
291.59	62.17
291.805	48.58
292.021	46.55
292.236	54.67
292.451	48.41
292.667	53.26
292.882	34.99
293.098	31.9
293.313	20.87
293.529	34.84
293.744	29.82
293.959	40.06
294.175	41.42
294.39	36.16
294.605	38.49
294.821	40.86
295.036	38.94
295.251	42.74
295.467	41.55
295.682	26.74
295.897	27.01
296.112	45.63
296.328	46.81
296.543	52.09
296.758	49.92
296.973	62.73
297.188	70.94
297.404	60.07
297.619	58.12
297.834	59.88
298.049	44.66
298.264	32.41
298.479	38.29
298.694	34.65
298.909	20.14
299.125	30.75
299.34	26.31
299.555	38.28
299.77	36.04
299.985	41.48
300.2	29.07
300.415	20.42
300.63	-6.84
300.845	-3.44
301.06	-9.24
301.275	-17.11
301.49	6.34
301.704	-2.17
301.919	4.05
302.134	20.09
302.349	36.61
302.564	27.32
302.779	28.64
302.994	31.52
303.209	41.27
303.423	34.51
303.638	33.32
303.853	36.81
304.068	40.96
304.283	30.26
304.497	35.52
304.712	35.05
304.927	29.19
305.142	23.68
305.356	18.27
305.571	32.29
305.786	33.19
306	34.65
306.215	30.45
306.43	42.82
306.644	33.23
306.859	35.02
307.074	53.84
307.288	57.6
307.503	47.16
307.717	46.85
307.932	43.79
308.147	46.34
308.361	44.38
308.576	45.51
308.79	36.56
309.005	32.89
309.219	1.31
309.434	14.09
309.648	17.43
309.863	23.84
310.077	31.85
310.292	42.39
310.506	25.34
310.72	24.81
310.935	19.5
311.149	21.46
311.364	4.27
311.578	31.48
311.792	35.5
312.007	30.83
312.221	33.28
312.435	46.15
312.649	36.82
312.864	0.34
313.078	0.87
313.292	-8.06
313.507	1.55
313.721	14.74
313.935	33.27
314.149	23.88
314.363	19.37
314.578	16.86
314.792	12.28
315.006	23.68
315.22	32.74
315.434	35.06
315.648	33.54
315.862	31.06
316.077	54.38
316.291	46.79
316.505	49.5
316.719	49.77
316.933	59.79
317.147	29.37
317.361	37.68
317.575	21.32
317.789	8.83
318.003	-17.12
318.217	8.49
318.431	3.26
318.645	24.51
318.859	63.94
319.073	57.12
319.287	35.25
319.5	44.94
319.714	18.42
319.928	8.53
320.142	8.53
320.356	40.61
320.57	41.56
320.784	49.01
320.997	45.32
321.211	60.62
321.425	48.07
321.639	37.52
321.853	46.6
322.066	52.93
322.28	23.89
322.494	17.17
322.707	19.43
322.921	12.41
323.135	1.58
323.349	19.18
323.562	31.33
323.776	31.73
323.989	30.92
324.203	26.85
324.417	9.18
324.63	18.4
324.844	26.96
325.057	8.41
325.271	20.49
325.485	26.23
325.698	27.62
325.912	30.25
326.125	62.39
326.339	67.27
326.552	77.27
326.766	79.25
326.979	72.32
327.193	37.04
327.406	17.8
327.619	4.35
327.833	-8.59
328.046	11.79
328.26	26.25
328.473	24.31
328.686	38.33
328.9	50.49
329.113	26.53
329.326	45.28
329.54	60.81
329.753	66.71
329.966	57.52
330.179	73.46
330.393	54.72
330.606	30.3
330.819	27.4
331.032	17.73
331.246	23.16
331.459	24.68
331.672	40.16
331.885	33.05
332.098	46.33
332.311	39.52
332.525	31.74
332.738	17.98
332.951	29.72
333.164	29.23
333.377	14.51
333.59	22.95
333.803	29.81
334.016	13.95
334.229	10.71
334.442	44.48
334.655	50.05
334.868	52.78
335.081	51.54
335.294	54.54
335.507	46.85
335.72	35.81
335.933	16.58
336.146	23.24
336.359	16.96
336.572	22.69
336.785	30.9
336.997	58.48
337.21	78.35
337.423	71.53
337.636	33.84
337.849	31.53
338.062	18.9
338.274	24.73
338.487	40.26
338.7	44.14
338.913	47.11
339.125	59.3
339.338	38.26
339.551	13.11
339.763	31
339.976	28.12
340.189	14.98
340.402	9.66
340.614	5.8
340.827	8.49
341.039	-7.35
341.252	-7.33
341.465	6.39
341.677	42.01
341.89	7.42
342.102	16.88
342.315	32.39
342.527	33.55
342.74	19.24
342.952	13.45
343.165	37.84
343.377	37.18
343.59	24.13
343.802	27.01
344.015	40.77
344.227	10.19
344.44	-25.57
344.652	-5.81
344.864	1.12
345.077	-6.77
345.289	-5.11
345.502	0.69
345.714	7.78
345.926	-6.44
346.139	9.8
346.351	19.49
346.563	14.64
346.775	10.19
346.988	24.66
347.2	30.69
347.412	36.96
347.624	38.02
347.837	30.06
348.049	15.78
348.261	2.87
348.473	9.39
348.685	22.85
348.897	29.34
349.11	28.58
349.322	39.72
349.534	34.63
349.746	38.17
349.958	44.81
350.17	64.68
350.382	58.46
350.594	41.58
350.806	35.09
351.018	32.39
351.23	23.16
351.442	15.39
351.654	47.19
351.866	39.28
352.078	29.93
352.29	23.08
352.502	25.03
352.714	20.85
352.926	18.19
353.138	28.25
353.35	28.22
353.561	26.72
353.773	33.54
353.985	33.15
354.197	14.26
354.409	21.68
354.621	18.48
354.832	15.59
355.044	22.54
355.256	33.55
355.468	30.88
355.679	40.48
355.891	45.68
356.103	46.52
356.314	36.39
356.526	51.93
356.738	53.27
356.949	49.2
357.161	50.78
357.373	56.81
357.584	49.35
357.796	50.96
358.008	53.95
358.219	52.88
358.431	48.25
358.642	42.4
358.854	37.93
359.065	26.5
359.277	27.43
359.488	35.15
359.7	26.35
359.911	35.4
360.123	43.51
360.334	40.5
360.546	30.5
360.757	36.34
360.969	30.26
361.18	22.11
361.391	20.99
361.603	23.49
361.814	16.23
362.025	22.49
362.237	35.61
362.448	28.25
362.659	16.49
362.871	31.76
363.082	27.24
363.293	26.91
363.504	35.85
363.716	44.7
363.927	24.95
364.138	15.32
364.349	0.3
364.56	-2.57
364.772	4.14
364.983	15.18
365.194	13.41
365.405	20.78
365.616	16.94
365.827	24.24
366.038	26.6
366.25	28.27
366.461	15.84
366.672	25.97
366.883	10.25
367.094	19.8
367.305	22.26
367.516	29.34
367.727	37.7
367.938	51.46
368.149	45.83
368.36	46.94
368.571	46.43
368.781	33.71
368.992	23.26
369.203	14.54
369.414	16
369.625	17.04
369.836	18.91
370.047	25.26
370.258	26.81
370.468	28.23
370.679	11.19
370.89	-1.04
371.101	-4
371.312	-0.7
371.522	-7.1
371.733	2.29
371.944	12.28
372.155	19.47
372.365	9.53
372.576	17.02
372.787	26.14
372.997	40.78
373.208	30.17
373.419	36.1
373.629	38.72
373.84	30.55
374.05	4.94
374.261	9.28
374.472	13.53
374.682	2.95
374.893	11.42
375.103	26.19
375.314	37.03
375.524	43.44
375.735	35.37
375.945	35.86
376.156	35.03
376.366	21.49
376.577	10.1
376.787	13.12
376.997	12.85
377.208	13.23
377.418	13.09
377.629	9.84
377.839	22.16
378.049	23.02
378.26	18.05
378.47	27.98
378.68	40.94
378.89	29.71
379.101	19.84
379.311	14.08
379.521	3
379.732	3.14
379.942	29.35
380.152	33.04
380.362	46.61
380.572	46.44
380.783	36.1
380.993	11
381.203	13.99
381.413	-3.2
381.623	7.03
381.833	6.53
382.043	19.47
382.253	18.57
382.463	27.69
382.674	28.35
382.884	31.9
383.094	13.25
383.304	19.3
383.514	17.67
383.724	6.94
383.934	10.51
384.144	11.57
384.353	13.53
384.563	18.19
384.773	22.93
384.983	17.44
385.193	24.56
385.403	19.24
385.613	19.65
385.823	16.46
386.033	18.47
386.242	18.31
386.452	16.35
386.662	16.8
386.872	18.1
387.082	15.3
387.291	5.36
387.501	3.97
387.711	1.83
387.921	3.72
388.13	9.65
388.34	17.04
388.55	19.58
388.759	15.16
388.969	13.02
389.179	11.39
389.388	13.07
389.598	15.5
389.807	16.1
390.017	16.4
390.227	16.56
390.436	12.53
390.646	9.25
390.855	7.45
391.065	4.35
391.274	3.75
391.484	3.21
391.693	3.44
391.903	6.21
392.112	9.11
392.322	7.82
392.531	8.94
392.74	8.12
392.95	7.86
393.159	6.75
393.369	6.11
393.578	6.74
393.787	6.5
393.997	5.96
394.206	7.26
394.415	7.91
394.625	6.73
394.834	6.63
395.043	7.26
395.252	7.23
395.462	7.45
395.671	7
395.88	7.78
396.089	7.73
396.298	7.1
396.508	6.96
396.717	7.52
396.926	7.02
397.135	6.52
397.344	6.63
397.553	6.36
397.762	6.31
397.971	6.1
398.181	6.06
398.39	5.7
398.599	5.91
398.808	5.99
399.017	6.2
399.226	6.49
399.435	6.67
399.644	6.92
399.853	6.81
400.062	6.76
400.27	6.11
400.479	5.58
400.688	5.33
400.897	5.48
401.106	5.67
401.315	6.32
401.524	6.86
401.733	6.73
401.941	6.59
402.15	6.33
402.359	5.97
402.568	5.74
402.777	5.53
402.985	5.33
403.194	5.54
403.403	5.62
403.612	5.58
403.82	5.66
404.029	5.67
404.238	5.45
404.446	5.43
404.655	5.46
404.864	5.46
405.072	5.59
405.281	5.63
405.489	5.45
405.698	5.43
405.906	5.48
406.115	5.15
406.324	4.95
406.532	4.86
406.741	4.79
406.949	4.81
407.158	4.95
407.366	4.99
407.574	5.28
407.783	5.18
407.991	5.12
408.2	5.13
408.408	5.25
408.617	5.03
408.825	5
409.033	4.94
409.242	4.92
409.45	4.83
409.658	4.94
409.867	5.05
410.075	5.08
410.283	5.02
410.491	4.98
410.7	4.8
410.908	4.67
411.116	4.68
411.324	4.57
411.533	4.55
411.741	4.43
411.949	4.39
412.157	4.38
412.365	4.6
412.573	4.54
412.781	4.65
412.99	4.76
413.198	4.8
413.406	4.75
413.614	4.79
413.822	4.83
414.03	4.81
414.238	4.67
414.446	4.64
414.654	4.58
414.862	4.58
415.07	4.56
415.278	4.58
415.486	4.52
415.694	4.45
415.902	4.39
416.109	4.49
416.317	4.55
416.525	4.4
416.733	4.53
416.941	4.52
417.149	4.34
417.357	4.32
417.564	4.37
417.772	4.37
417.98	4.5
418.188	4.66
418.395	4.56
418.603	4.59
418.811	4.63
419.019	4.46
419.226	4.39
419.434	4.5
419.642	4.62
419.849	4.56
420.057	4.65
420.265	4.77
420.472	4.74
420.68	4.68
420.887	4.78
421.095	4.76
421.302	4.68
421.51	4.46
421.717	4.46
421.925	4.26
422.132	4.22
422.34	4.04
422.547	4.17
422.755	4.15
422.962	4.23
423.17	4.45
423.377	4.63
423.585	4.69
423.792	4.83
423.999	4.71
424.207	4.55
424.414	4.39
424.621	4.37
424.829	4.11
425.036	4.33
425.243	4.32
425.451	4.37
425.658	4.21
425.865	4.34
426.072	4.21
426.28	4.12
426.487	4.21
426.694	4.27
426.901	4.19
427.108	4.29
427.315	4.17
427.523	3.98
427.73	3.88
427.937	3.86
428.144	3.81
428.351	3.93
428.558	4.17
428.765	4.38
428.972	4.35
429.179	4.31
429.386	4.23
429.593	4.01
429.8	3.94
430.007	3.97
430.214	3.93
430.421	3.98
430.628	4.07
430.835	4.04
431.042	4.06
431.249	4.17
431.456	4.18
431.662	4.19
431.869	4.36
432.076	4.42
432.283	4.42
432.49	4.5
432.697	4.51
432.903	4.37
433.11	4.5
433.317	4.45
433.524	4.26
433.73	4.24
433.937	4.21
434.144	4.06
434.35	4.08
434.557	4.19
434.764	4.23
434.97	4.22
435.177	4.29
435.384	4.06
435.59	4.11
435.797	4.09
436.003	4.13
436.21	3.92
436.416	4.02
436.623	3.85
436.829	3.72
437.036	3.7
437.242	3.94
437.449	3.98
437.655	4.14
437.862	4.36
438.068	4.36
438.275	4.28
438.481	4.28
438.687	4.32
438.894	4.2
439.1	4.16
439.307	4.05
439.513	4.09
439.719	4.08
439.926	3.99
440.132	4.16
440.338	4.12
440.544	4.01
440.751	3.91
440.957	4.07
441.163	3.84
441.369	3.97
441.575	3.94
441.782	3.98
441.988	3.86
442.194	4
442.4	4.05
442.606	4.15
442.812	4.09
443.018	4.07
443.224	3.93
443.431	3.74
443.637	3.77
443.843	3.73
444.049	3.81
444.255	3.87
444.461	3.87
444.667	3.78
444.873	3.78
445.079	3.84
445.284	3.94
445.49	4.06
445.696	4.07
445.902	4.17
446.108	4.1
446.314	4.08
446.52	4.09
446.726	4.16
446.931	4.09
447.137	4.05
447.343	3.88
447.549	3.77
447.755	3.64
447.96	3.73
448.166	3.75
448.372	3.89
448.578	3.9
448.783	3.99
448.989	3.95
449.195	3.9
449.4	3.9
449.606	3.97
449.812	3.98
450.017	3.96
450.223	4.07
450.428	3.91
450.634	3.88
450.84	3.83
451.045	3.88
451.251	3.82
451.456	3.96
451.662	3.99
451.867	4.06
452.073	3.99
452.278	4.01
452.483	3.95
452.689	3.99
452.894	4.05
453.1	4.06
453.305	4.06
453.51	4.1
453.716	4
453.921	3.89
454.127	3.97
454.332	3.94
454.537	4.02
454.742	3.9
454.948	3.87
455.153	3.86
455.358	3.88
455.563	3.88
455.769	4.01
455.974	4.01
456.179	3.96
456.384	3.85
456.589	3.82
456.795	3.75
457	3.76
457.205	3.69
457.41	3.79
457.615	3.7
457.82	3.79
458.025	3.8
458.23	3.89
458.435	3.82
458.64	3.79
458.845	3.77
459.05	3.77
459.255	3.87
459.46	3.89
459.665	3.96
459.87	3.99
460.075	4.05
460.28	3.97
460.485	4.05
460.69	4.07
460.895	4.04
461.099	4.05
461.304	4.05
461.509	3.98
461.714	3.97
461.919	4
462.123	4.02
462.328	3.97
462.533	3.98
462.738	3.99
462.942	3.92
463.147	3.92
463.352	3.88
463.556	3.9
463.761	3.86
463.966	3.89
464.17	3.96
464.375	3.93
464.58	3.91
464.784	4
464.989	4.03
465.193	3.98
465.398	4.06
465.602	4.13
465.807	4.08
466.011	4.09
466.216	4.03
466.42	4.21
466.625	4.16
466.829	4.11
467.034	4.22
467.238	4.28
467.443	4.19
467.647	4.15
467.851	4.2
468.056	3.99
468.26	3.99
468.464	3.96
468.669	3.95
468.873	3.93
