Data from Ofav_PP_Phys_367_Reflection_3.txt Node
Date: Tue Jul 27 19:08:22 EDT 2021
User: USUARIO
Spectrometer: FLMT01687
Trigger mode: 0
Integration Time (sec): 8.500000E-1
Scans to average: 2
Electric dark correction enabled: true
Nonlinearity correction enabled: false
Boxcar width: 2
XAxis mode: Wavelengths
Number of Pixels in Spectrum: 3648
>>>>>Begin Spectral Data<<<<<
179.494	-1585.19
179.716	-535.75
179.937	-372.36
180.158	-333.67
180.38	-357.36
180.601	-258.6
180.823	69.28
181.044	70.6
181.265	38.92
181.486	104.8
181.708	43.62
181.929	74.21
182.15	54.63
182.372	104.32
182.593	95.81
182.814	64.7
183.035	41.95
183.257	49.07
183.478	43.23
183.699	44.72
183.92	66.91
184.141	70.36
184.363	86.71
184.584	103.16
184.805	120.53
185.026	105.19
185.247	125.13
185.468	94.77
185.689	70.53
185.91	31.04
186.132	13.42
186.353	34.12
186.574	27.31
186.795	14.22
187.016	47.04
187.237	43.05
187.458	17.79
187.679	49.32
187.9	71.09
188.121	79.99
188.342	86.12
188.563	98.02
188.784	86.17
189.005	77.99
189.226	73.94
189.447	66.01
189.667	74.98
189.888	81.21
190.109	90.23
190.33	81.56
190.551	68.18
190.772	59.59
190.993	39.97
191.214	25.89
191.434	41.59
191.655	59.45
191.876	61.71
192.097	53.75
192.318	63.14
192.538	59.5
192.759	62.88
192.98	57.36
193.201	77.32
193.421	98.62
193.642	77.23
193.863	54.7
194.083	57.87
194.304	39.11
194.525	13.38
194.745	-20.22
194.966	-33.3
195.187	-61.69
195.407	-13.43
195.628	28.17
195.848	77.86
196.069	115.84
196.29	176.56
196.51	137.25
196.731	105.5
196.951	99.73
197.172	86.11
197.392	83.57
197.613	92.16
197.833	81.44
198.054	79.47
198.274	73.97
198.495	93.49
198.715	128.19
198.936	123.27
199.156	118.22
199.377	149.64
199.597	156.41
199.817	77.18
200.038	102.39
200.258	48.94
200.479	26.26
200.699	12.28
200.919	30.17
201.14	35.66
201.36	32.1
201.58	57.49
201.801	53.3
202.021	41.7
202.241	53.59
202.461	55.19
202.682	17.06
202.902	33.41
203.122	30.97
203.342	43.26
203.563	54.44
203.783	66.91
204.003	53.75
204.223	64.94
204.443	67.84
204.663	67.63
204.884	58.97
205.104	68.46
205.324	80.7
205.544	70.5
205.764	64.06
205.984	55.38
206.204	64.8
206.424	42.99
206.644	47.34
206.864	41.81
207.084	44.53
207.304	30.99
207.525	21.83
207.745	26.24
207.964	55.84
208.184	72.81
208.404	104.61
208.624	106.05
208.844	102.62
209.064	108.69
209.284	77.93
209.504	65.78
209.724	67.08
209.944	53.47
210.164	50.66
210.384	85.09
210.604	101.37
210.823	81.23
211.043	73.43
211.263	75.39
211.483	101.47
211.703	105.58
211.922	118.78
212.142	139.26
212.362	70.6
212.582	65.5
212.801	33.1
213.021	26.82
213.241	29.99
213.461	45.81
213.68	34.78
213.9	53.59
214.12	30.1
214.339	48.36
214.559	45.14
214.779	52.52
214.998	40.72
215.218	47.8
215.438	52.42
215.657	55.53
215.877	55.88
216.096	67.85
216.316	69.55
216.535	47.76
216.755	65.47
216.974	61.08
217.194	67.68
217.413	70.71
217.633	63.31
217.852	42.36
218.072	36.4
218.291	17.27
218.511	8.38
218.73	37.52
218.95	32.49
219.169	33.86
219.389	41.44
219.608	67.67
219.827	65.58
220.047	104.93
220.266	74.36
220.485	71.65
220.705	68.24
220.924	53.39
221.143	41.06
221.363	29.91
221.582	25.62
221.801	20.96
222.021	52.38
222.24	60.45
222.459	71.73
222.678	101.29
222.897	91.95
223.117	87.04
223.336	77.24
223.555	51.8
223.774	36.82
223.993	44
224.213	30.84
224.432	32.16
224.651	63.43
224.87	47.13
225.089	53.6
225.308	40.07
225.527	59.43
225.746	53.52
225.965	102.24
226.184	66.92
226.404	72.23
226.623	44.66
226.842	29.11
227.061	0.28
227.28	22.44
227.499	47.46
227.718	60.56
227.936	94.61
228.155	81.14
228.374	79.34
228.593	80.02
228.812	90.82
229.031	76.99
229.25	89.33
229.469	99.28
229.688	50.92
229.907	-6.37
230.125	0.08
230.344	17.99
230.563	42.61
230.782	66.69
231.001	72.8
231.22	78.72
231.438	61.55
231.657	36.4
231.876	34.76
232.095	48.91
232.313	53.87
232.532	45.63
232.751	59.07
232.969	74.58
233.188	76.27
233.407	71.58
233.625	85.68
233.844	68.27
234.063	53.54
234.281	53.84
234.5	33.07
234.719	39.59
234.937	40.75
235.156	28.19
235.374	29.61
235.593	49.04
235.811	39.1
236.03	35.07
236.249	47.28
236.467	49.09
236.686	45.66
236.904	51.6
237.123	62.96
237.341	49.67
237.559	48.54
237.778	45.43
237.996	41.28
238.215	28.46
238.433	40.82
238.652	29.17
238.87	31.54
239.088	24.22
239.307	47.13
239.525	31.51
239.743	26.87
239.962	22.06
240.18	32.8
240.398	37.56
240.617	47.29
240.835	71.53
241.053	86.7
241.271	87.25
241.49	79.24
241.708	101.42
241.926	58.02
242.144	29.96
242.363	34.13
242.581	43.04
242.799	23.31
243.017	31.89
243.235	68.52
243.453	80.68
243.672	68.2
243.89	66.97
244.108	68.34
244.326	61.22
244.544	40.9
244.762	41.12
244.98	56.11
245.198	63.67
245.416	66.85
245.634	78.04
245.852	86.36
246.07	75.04
246.288	59.81
246.506	49.05
246.724	50.48
246.942	41.54
247.16	35.19
247.378	50.34
247.596	57.05
247.814	57.63
248.032	57.54
248.25	53.24
248.468	57.39
248.685	57.18
248.903	51.13
249.121	57.58
249.339	51.98
249.557	57.96
249.775	31.11
249.992	21.53
250.21	20.7
250.428	26.54
250.646	2.77
250.863	27.75
251.081	40.44
251.299	45.55
251.517	52.93
251.734	93.22
251.952	92.62
252.17	98.24
252.387	93.64
252.605	103.11
252.823	64.76
253.04	70.94
253.258	75.38
253.475	63.82
253.693	68.54
253.911	81.51
254.128	72.58
254.346	73.56
254.563	81.74
254.781	73.51
254.998	78.46
255.216	58.55
255.433	58.08
255.651	61.31
255.868	51.17
256.086	37.32
256.303	41.89
256.521	37.53
256.738	30.55
256.956	34.63
257.173	45.5
257.39	57.04
257.608	52.15
257.825	74.07
258.043	63.52
258.26	61.27
258.477	58.76
258.695	64.53
258.912	46.92
259.129	50.49
259.346	39.97
259.564	51.28
259.781	69.69
259.998	55.35
260.216	60.03
260.433	64.55
260.65	66.87
260.867	53.36
261.084	67.8
261.302	77.76
261.519	65.8
261.736	51.54
261.953	43.9
262.17	41.03
262.387	27.66
262.604	31.11
262.822	43.28
263.039	59.82
263.256	72.48
263.473	94.28
263.69	115.96
263.907	90.72
264.124	83.85
264.341	60.67
264.558	65.24
264.775	67.62
264.992	67.28
265.209	61.02
265.426	60.77
265.643	43.95
265.86	24.97
266.077	18.05
266.294	38.14
266.51	44.93
266.727	54.95
266.944	70.05
267.161	21.44
267.378	-4.89
267.595	-0.12
267.812	-12.37
268.028	-20.66
268.245	46.63
268.462	56.5
268.679	44.19
268.896	54.8
269.112	41.56
269.329	44.3
269.546	47.38
269.763	38.98
269.979	47.77
270.196	64.6
270.413	74.42
270.629	79.61
270.846	87.07
271.063	63.95
271.279	52.91
271.496	41.82
271.712	29.29
271.929	44.11
272.146	63.72
272.362	81.83
272.579	64.63
272.795	79.52
273.012	71.8
273.228	64.17
273.445	46.01
273.661	50.93
273.878	36.98
274.094	27.55
274.311	43.55
274.527	44.65
274.744	54.26
274.96	63.64
275.177	65.07
275.393	56.5
275.609	62.81
275.826	72.7
276.042	76.93
276.259	83.89
276.475	79.37
276.691	68.13
276.908	56.61
277.124	50.49
277.34	61.01
277.557	63.32
277.773	76.55
277.989	70.67
278.205	62.25
278.422	39.52
278.638	47.99
278.854	45.57
279.07	38.92
279.286	41.26
279.503	53.16
279.719	53.82
279.935	64.88
280.151	69.13
280.367	74.57
280.583	77.03
280.799	77.58
281.016	70.64
281.232	76.55
281.448	66.92
281.664	51.26
281.88	34.64
282.096	29.53
282.312	8.21
282.528	-6.22
282.744	13.69
282.96	31.33
283.176	49.63
283.392	67.88
283.608	101.88
283.824	70.48
284.04	54.19
284.256	48.45
284.471	45.19
284.687	40.63
284.903	45.27
285.119	64.42
285.335	58.2
285.551	48.06
285.767	46.01
285.982	41.86
286.198	29.83
286.414	20.43
286.63	29.2
286.846	25.8
287.061	19.09
287.277	6.78
287.493	16.1
287.709	17.55
287.924	30.05
288.14	61.81
288.356	98.59
288.571	104.79
288.787	96.12
289.003	92.68
289.218	97.99
289.434	68.85
289.65	59.46
289.865	45.44
290.081	61.53
290.296	26.23
290.512	36.13
290.727	34.75
290.943	67.48
291.159	78.34
291.374	123.65
291.59	96.48
291.805	92.3
292.021	85.06
292.236	73.74
292.451	58.19
292.667	52.45
292.882	41.18
293.098	25.27
293.313	35.78
293.529	45.13
293.744	34.94
293.959	46.72
294.175	51.02
294.39	34.52
294.605	45.1
294.821	53.94
295.036	42.92
295.251	47.71
295.467	44.03
295.682	8.46
295.897	42.25
296.112	64.6
296.328	54.16
296.543	61.96
296.758	49.7
296.973	37.68
297.188	44.74
297.404	41.2
297.619	43.58
297.834	62.8
298.049	66.61
298.264	48.65
298.479	51.75
298.694	58.49
298.909	51.84
299.125	50.79
299.34	50.42
299.555	51.73
299.77	44.25
299.985	37.47
300.2	36.24
300.415	52.43
300.63	51.61
300.845	49.37
301.06	59.61
301.275	54.32
301.49	45.5
301.704	29.1
301.919	29.77
302.134	47.14
302.349	41.97
302.564	35.22
302.779	46.19
302.994	48.04
303.209	42.4
303.423	37.96
303.638	48.74
303.853	31.62
304.068	46.46
304.283	43.93
304.497	49.46
304.712	47.8
304.927	53.37
305.142	44.2
305.356	28.69
305.571	27.27
305.786	15.89
306	28.24
306.215	34.04
306.43	57.93
306.644	67.72
306.859	85.97
307.074	102.85
307.288	106.72
307.503	91.02
307.717	83.19
307.932	64.2
308.147	57.45
308.361	54.55
308.576	63.31
308.79	70.7
309.005	80.48
309.219	56.57
309.434	57.24
309.648	44.52
309.863	34.7
310.077	43.56
310.292	54.69
310.506	43.16
310.72	58.31
310.935	64.76
311.149	47.92
311.364	56.75
311.578	52.69
311.792	46.37
312.007	51.02
312.221	51.28
312.435	50.28
312.649	58.67
312.864	14.63
313.078	-11.49
313.292	-34.46
313.507	-29.84
313.721	-12.86
313.935	30.85
314.149	37.14
314.363	43.37
314.578	45.21
314.792	40.78
315.006	54.79
315.22	56.69
315.434	60.82
315.648	72.17
315.862	68.8
316.077	65.32
316.291	68.16
316.505	50.33
316.719	42.18
316.933	47.36
317.147	29.43
317.361	29.13
317.575	44.61
317.789	55.68
318.003	60.71
318.217	80.27
318.431	76.7
318.645	73.77
318.859	75.37
319.073	46.38
319.287	36.16
319.5	41.23
319.714	35.55
319.928	36.53
320.142	55.69
320.356	57.1
320.57	53.4
320.784	62
320.997	62.84
321.211	58.72
321.425	47.19
321.639	31.64
321.853	21.48
322.066	13.48
322.28	6.58
322.494	6.23
322.707	34.46
322.921	36.16
323.135	27.94
323.349	38.06
323.562	49.78
323.776	37.08
323.989	20.76
324.203	28.24
324.417	12.44
324.63	27.89
324.844	32.3
325.057	43.68
325.271	59.5
325.485	69.15
325.698	56.28
325.912	57.25
326.125	64.38
326.339	64.57
326.552	61.31
326.766	63.07
326.979	59.95
327.193	59.83
327.406	52.88
327.619	60.68
327.833	52.47
328.046	56.91
328.26	52.17
328.473	44.14
328.686	34.7
328.9	50.98
329.113	44.39
329.326	24.71
329.54	35.2
329.753	38.63
329.966	14.4
330.179	19.13
330.393	42.67
330.606	30.76
330.819	41.59
331.032	36.96
331.246	47.37
331.459	52.86
331.672	68.48
331.885	55.25
332.098	67.67
332.311	60.63
332.525	59.51
332.738	37.75
332.951	57.58
333.164	53.1
333.377	49.88
333.59	46.1
333.803	61.28
334.016	40.36
334.229	30.77
334.442	41.89
334.655	40.5
334.868	51.55
335.081	68.51
335.294	86
335.507	85.66
335.72	99.67
335.933	66.53
336.146	57.13
336.359	37.6
336.572	54.48
336.785	43.57
336.997	69.19
337.21	90.39
337.423	100.02
337.636	78.25
337.849	61.38
338.062	49.51
338.274	31.52
338.487	40.55
338.7	36.5
338.913	45.24
339.125	52.78
339.338	54.5
339.551	31.74
339.763	29.08
339.976	30.69
340.189	11.4
340.402	4.43
340.614	7.31
340.827	30.84
341.039	17.53
341.252	26.92
341.465	26.5
341.677	30.59
341.89	17.47
342.102	26.8
342.315	22.32
342.527	25.58
342.74	27.83
342.952	15.25
343.165	26.74
343.377	36.51
343.59	28
343.802	38.19
344.015	44.08
344.227	42.22
344.44	37.92
344.652	74.13
344.864	51.95
345.077	54.01
345.289	36.88
345.502	28.23
345.714	23.53
345.926	30.35
346.139	26.79
346.351	37.23
346.563	29.68
346.775	29.97
346.988	28.25
347.2	36.33
347.412	50.74
347.624	73.47
347.837	59.61
348.049	52.66
348.261	38.61
348.473	26.32
348.685	34.55
348.897	40.85
349.11	36.3
349.322	19.1
349.534	21.36
349.746	20.95
349.958	41.71
350.17	50.77
350.382	57.42
350.594	57.62
350.806	56.94
351.018	34.14
351.23	23.56
351.442	39.19
351.654	56.83
351.866	41.64
352.078	44.87
352.29	48.24
352.502	38.13
352.714	39.8
352.926	53.75
353.138	60.55
353.35	70.53
353.561	77.22
353.773	73.81
353.985	58.97
354.197	48.01
354.409	38.65
354.621	38.22
354.832	37.5
355.044	30.84
355.256	39.96
355.468	41.42
355.679	37.81
355.891	49.9
356.103	69.14
356.314	72.69
356.526	67.12
356.738	78.12
356.949	61.79
357.161	51.5
357.373	37.83
357.584	44.44
357.796	57.99
358.008	52.46
358.219	62.43
358.431	60.32
358.642	53.35
358.854	45.87
359.065	45.38
359.277	47.56
359.488	56.53
359.7	53.18
359.911	40.65
360.123	48.12
360.334	30.36
360.546	15.8
360.757	16.45
360.969	20.82
361.18	13.6
361.391	20.61
361.603	19.43
361.814	23.03
362.025	34.74
362.237	42.11
362.448	41.46
362.659	39.59
362.871	41.71
363.082	36.28
363.293	43.72
363.504	47.14
363.716	52.27
363.927	51.12
364.138	49.07
364.349	20.6
364.56	20.59
364.772	26.18
364.983	28.99
365.194	25.97
365.405	34.27
365.616	23.79
365.827	33.09
366.038	36.54
366.25	39.55
366.461	47.26
366.672	85.07
366.883	57.19
367.094	52.31
367.305	45.31
367.516	40.43
367.727	34.78
367.938	35.12
368.149	41.39
368.36	43.32
368.571	37.96
368.781	37.29
368.992	32.69
369.203	26.12
369.414	28.15
369.625	39.27
369.836	40.58
370.047	54.78
370.258	59.53
370.468	59.1
370.679	36.47
370.89	20.25
371.101	16.29
371.312	25
371.522	18.54
371.733	32.68
371.944	40.3
372.155	42.59
372.365	16.4
372.576	22.72
372.787	27.14
372.997	39.88
373.208	34.36
373.419	44.71
373.629	49.16
373.84	47.78
374.05	41.37
374.261	35.94
374.472	41.34
374.682	38.13
374.893	44.26
375.103	39.21
375.314	49.2
375.524	65.84
375.735	59.97
375.945	52.91
376.156	57.72
376.366	59.76
376.577	39.82
376.787	38.81
376.997	33.25
377.208	35.95
377.418	29.14
377.629	37.59
377.839	44.84
378.049	44.76
378.26	44.79
378.47	51.49
378.68	52.78
378.89	53.86
379.101	47.24
379.311	30.34
379.521	19.6
379.732	20.88
379.942	24.68
380.152	30.37
380.362	45.9
380.572	48.77
380.783	41.1
380.993	30.17
381.203	24.81
381.413	14.32
381.623	16.34
381.833	15.63
382.043	28.25
382.253	37.68
382.463	36.43
382.674	46.85
382.884	41.54
383.094	28.43
383.304	24.4
383.514	30
383.724	11.04
383.934	10.62
384.144	9.25
384.353	7.25
384.563	9.55
384.773	17.5
384.983	17.27
385.193	23.73
385.403	24.87
385.613	23.1
385.823	21.11
386.033	23.26
386.242	21.99
386.452	21.55
386.662	25.81
386.872	25.28
387.082	23.3
387.291	11.59
387.501	10.75
387.711	2.1
387.921	5.34
388.13	8.54
388.34	14.86
388.55	14.13
388.759	15.52
388.969	13.99
389.179	14.23
389.388	16.12
389.598	18.17
389.807	18.95
390.017	15.45
390.227	16.08
390.436	15.99
390.646	13.64
390.855	9.37
391.065	9.88
391.274	8.23
391.484	5.52
391.693	6.82
391.903	10.74
392.112	10.59
392.322	11.79
392.531	12.46
392.74	11.72
392.95	10.45
393.159	11.5
393.369	9.95
393.578	11.16
393.787	10.79
393.997	10.7
394.206	11.55
394.415	11.9
394.625	10.59
394.834	10.36
395.043	10.69
395.252	9.45
395.462	9.68
395.671	9.55
395.88	10.67
396.089	10.71
396.298	10.57
396.508	10.47
396.717	10.85
396.926	10.08
397.135	9.02
397.344	8.9
397.553	8.97
397.762	8.61
397.971	8.36
398.181	8.76
398.39	8.56
398.599	8.28
398.808	8.57
399.017	9
399.226	9.11
399.435	9.36
399.644	9.5
399.853	9.43
400.062	9.36
400.27	8.97
400.479	8.48
400.688	8.47
400.897	8.19
401.106	8.21
401.315	8.55
401.524	8.8
401.733	8.39
401.941	8.26
402.15	8.13
402.359	7.86
402.568	7.97
402.777	8
402.985	7.98
403.194	8.05
403.403	8.19
403.612	8
403.82	7.89
404.029	8.09
404.238	8
404.446	8.04
404.655	8.07
404.864	8.27
405.072	8.23
405.281	8.08
405.489	7.85
405.698	7.97
405.906	7.79
406.115	7.7
406.324	7.67
406.532	7.52
406.741	7.5
406.949	7.69
407.158	7.61
407.366	7.4
407.574	7.62
407.783	7.39
407.991	7.28
408.2	7.3
408.408	7.56
408.617	7.32
408.825	7.44
409.033	7.37
409.242	7.31
409.45	7.2
409.658	7.38
409.867	7.32
410.075	7.19
410.283	7.22
410.491	7.22
410.7	7.13
410.908	7.16
411.116	7.3
411.324	7.19
411.533	7.05
411.741	6.83
411.949	6.68
412.157	6.65
412.365	6.9
412.573	6.88
412.781	7.06
412.99	7.15
413.198	7.26
413.406	7.16
413.614	7.27
413.822	7.36
414.03	7.3
414.238	7.1
414.446	7.05
414.654	6.99
414.862	6.86
415.07	6.77
415.278	6.82
415.486	6.74
415.694	6.61
415.902	6.55
416.109	6.62
416.317	6.62
416.525	6.58
416.733	6.67
416.941	6.82
417.149	6.76
417.357	6.73
417.564	6.63
417.772	6.58
417.98	6.56
418.188	6.66
418.395	6.58
418.603	6.65
418.811	6.81
419.019	6.72
419.226	6.77
419.434	6.99
419.642	7.11
419.849	6.93
420.057	6.99
420.265	6.97
420.472	6.81
420.68	6.77
420.887	6.79
421.095	6.66
421.302	6.55
421.51	6.46
421.717	6.33
421.925	6.36
422.132	6.45
422.34	6.24
422.547	6.19
422.755	6.36
422.962	6.28
423.17	6.25
423.377	6.57
423.585	6.81
423.792	6.73
423.999	6.71
424.207	6.7
424.414	6.45
424.621	6.32
424.829	6.17
425.036	6.23
425.243	6.33
425.451	6.26
425.658	6.2
425.865	6.39
426.072	6.45
426.28	6.23
426.487	6.44
426.694	6.36
426.901	6.13
427.108	6.02
427.315	6.09
427.523	5.87
427.73	5.9
427.937	5.97
428.144	5.96
428.351	5.86
428.558	6.02
428.765	5.99
428.972	5.96
429.179	5.96
429.386	5.88
429.593	5.69
429.8	5.82
430.007	5.9
430.214	5.85
430.421	6.05
430.628	6.22
430.835	6.17
431.042	6.01
431.249	6.16
431.456	6.2
431.662	6.19
431.869	6.29
432.076	6.37
432.283	6.26
432.49	6.19
432.697	6.23
432.903	6.11
433.11	6.23
433.317	6.26
433.524	6.32
433.73	6.26
433.937	6.27
434.144	6.2
434.35	6.15
434.557	6.01
434.764	5.85
434.97	5.89
435.177	5.96
435.384	6.02
435.59	6.21
435.797	6.28
436.003	6.35
436.21	6.25
436.416	6.04
436.623	5.83
436.829	5.87
437.036	5.76
437.242	5.69
437.449	5.74
437.655	5.8
437.862	5.91
438.068	5.9
438.275	6.08
438.481	6.05
438.687	6.1
438.894	6.12
439.1	6.11
439.307	5.91
439.513	6.04
439.719	6
439.926	5.82
440.132	5.96
440.338	6.03
440.544	5.92
440.751	5.97
440.957	6.09
441.163	5.96
441.369	5.99
441.575	6.04
441.782	6.16
441.988	6.14
442.194	6.23
442.4	6.29
442.606	6.38
442.812	6.24
443.018	6.15
443.224	6.05
443.431	5.93
443.637	5.96
443.843	5.88
444.049	6.07
444.255	6.03
444.461	6.04
444.667	5.96
444.873	5.96
445.079	5.86
445.284	5.9
445.49	5.84
445.696	5.84
445.902	5.93
446.108	5.9
446.314	5.87
446.52	6.05
446.726	6.07
446.931	6.08
447.137	6.08
447.343	6.1
447.549	5.95
447.755	5.85
447.96	5.82
448.166	5.87
448.372	5.97
448.578	5.97
448.783	5.98
448.989	5.92
449.195	5.81
449.4	5.73
449.606	5.78
449.812	5.74
450.017	5.91
450.223	5.93
450.428	5.94
450.634	5.86
450.84	5.93
451.045	5.83
451.251	5.87
451.456	5.85
451.662	5.85
451.867	5.89
452.073	5.83
452.278	5.83
452.483	5.66
452.689	5.76
452.894	5.74
453.1	5.84
453.305	5.93
453.51	6.08
453.716	5.97
453.921	6.03
454.127	6.01
454.332	5.95
454.537	5.93
454.742	5.88
454.948	5.8
455.153	5.79
455.358	5.74
455.563	5.82
455.769	6
455.974	5.96
456.179	5.92
456.384	5.87
456.589	5.89
456.795	5.78
457	5.86
457.205	5.77
457.41	5.9
457.615	5.78
457.82	5.73
458.025	5.61
458.23	5.66
458.435	5.52
458.64	5.43
458.845	5.54
459.05	5.52
459.255	5.54
459.46	5.53
459.665	5.66
459.87	5.66
460.075	5.76
460.28	5.77
460.485	5.77
460.69	5.8
460.895	5.83
461.099	5.85
461.304	5.81
461.509	5.76
461.714	5.72
461.919	5.7
462.123	5.62
462.328	5.67
462.533	5.71
462.738	5.74
462.942	5.61
463.147	5.66
463.352	5.54
463.556	5.67
463.761	5.53
463.966	5.56
464.17	5.66
464.375	5.75
464.58	5.65
464.784	5.79
464.989	5.86
465.193	5.78
465.398	5.83
465.602	5.98
465.807	5.92
466.011	5.91
466.216	5.87
466.42	5.83
466.625	5.7
466.829	5.68
467.034	5.77
467.238	5.82
467.443	5.85
