Data from Ofav_PP_Phys_362_Reflection_3.txt Node
Date: Tue Jul 27 19:09:43 EDT 2021
User: USUARIO
Spectrometer: FLMT01687
Trigger mode: 0
Integration Time (sec): 8.500000E-1
Scans to average: 2
Electric dark correction enabled: true
Nonlinearity correction enabled: false
Boxcar width: 2
XAxis mode: Wavelengths
Number of Pixels in Spectrum: 3648
>>>>>Begin Spectral Data<<<<<
179.494	-1641.48
179.716	-522.31
179.937	-345.89
180.158	-315.23
180.38	-249.68
180.601	-107.24
180.823	65.3
181.044	58.88
181.265	23.44
181.486	204.66
181.708	115.39
181.929	87.45
182.15	79.24
182.372	98.79
182.593	112.3
182.814	98.46
183.035	81.08
183.257	70.39
183.478	65.19
183.699	69.41
183.92	74.94
184.141	69.21
184.363	74.43
184.584	79.07
184.805	90.59
185.026	79.01
185.247	80.6
185.468	69.06
185.689	58.03
185.91	43.31
186.132	36.9
186.353	57.45
186.574	66.63
186.795	75.05
187.016	85.52
187.237	83.65
187.458	50.77
187.679	58.86
187.9	49.9
188.121	65.31
188.342	74.34
188.563	111.87
188.784	76.6
189.005	65.57
189.226	52.81
189.447	39.44
189.667	42.19
189.888	51.03
190.109	82.79
190.33	115.64
190.551	112.47
190.772	86.92
190.993	67.11
191.214	49.62
191.434	20.51
191.655	21.94
191.876	14.73
192.097	-9.35
192.318	5.35
192.538	4.67
192.759	11.38
192.98	9.58
193.201	26.99
193.421	25.95
193.642	42.15
193.863	37.57
194.083	65.61
194.304	61.2
194.525	49.45
194.745	3.16
194.966	-24.64
195.187	-111.5
195.407	-70.02
195.628	-67.5
195.848	15.11
196.069	41.21
196.29	114.12
196.51	119.36
196.731	93.78
196.951	74.92
197.172	72.32
197.392	70.15
197.613	53.8
197.833	59.42
198.054	88.58
198.274	76.06
198.495	74.69
198.715	101.15
198.936	74.99
199.156	78.75
199.377	88.85
199.597	73.3
199.817	44.22
200.038	41.52
200.258	65.18
200.479	20.34
200.699	22.44
200.919	8.88
201.14	26.77
201.36	25.94
201.58	69.22
201.801	59.13
202.021	91.19
202.241	108.94
202.461	68.51
202.682	32.23
202.902	55.07
203.122	34.26
203.342	43.06
203.563	58.03
203.783	73.81
204.003	58.1
204.223	59.51
204.443	61.57
204.663	30.34
204.884	50.01
205.104	33.48
205.324	44.52
205.544	23.14
205.764	30.68
205.984	20.36
206.204	42.9
206.424	24.48
206.644	44.23
206.864	59.94
207.084	52.21
207.304	73.51
207.525	83.74
207.745	84.61
207.964	84.69
208.184	96.93
208.404	74.15
208.624	50.56
208.844	62.85
209.064	64.79
209.284	35.31
209.504	44.99
209.724	41.98
209.944	1.55
210.164	1.99
210.384	63.93
210.604	17.52
210.823	67.95
211.043	68.1
211.263	54.69
211.483	55.73
211.703	63.28
211.922	50.01
212.142	66.61
212.362	67.13
212.582	79.96
212.801	81.22
213.021	81.94
213.241	56.83
213.461	60.73
213.68	32.31
213.9	21.35
214.12	46.53
214.339	76.06
214.559	70.28
214.779	69.52
214.998	50.9
215.218	31.11
215.438	32.34
215.657	27.51
215.877	31.59
216.096	41.45
216.316	58.2
216.535	50.37
216.755	60.33
216.974	82.86
217.194	83.56
217.413	77.15
217.633	75.77
217.852	67.5
218.072	52.62
218.291	56.77
218.511	40.59
218.73	36.95
218.95	19.26
219.169	26.15
219.389	22.46
219.608	35.63
219.827	54.57
220.047	80.93
220.266	70.78
220.485	66.58
220.705	68.78
220.924	79.29
221.143	70.75
221.363	56.19
221.582	52.26
221.801	45.28
222.021	42.75
222.24	50.61
222.459	59.46
222.678	53.94
222.897	34.96
223.117	17.68
223.336	6.39
223.555	15.7
223.774	6.02
223.993	8.6
224.213	3.97
224.432	20.78
224.651	36.52
224.87	37.57
225.089	39.08
225.308	32.02
225.527	42.56
225.746	34.65
225.965	58.25
226.184	46.27
226.404	46.67
226.623	28.2
226.842	7.54
227.061	-6.57
227.28	6.7
227.499	30.18
227.718	33.44
227.936	41.7
228.155	55.24
228.374	60.27
228.593	53.31
228.812	61.65
229.031	72.19
229.25	65.67
229.469	48.66
229.688	41.54
229.907	0.21
230.125	8.77
230.344	26.91
230.563	50.42
230.782	43.95
231.001	46.53
231.22	45.98
231.438	34.07
231.657	12.54
231.876	15.12
232.095	12.04
232.313	15.62
232.532	9.78
232.751	32.45
232.969	44.58
233.188	61.29
233.407	50.86
233.625	64.24
233.844	55.09
234.063	62.16
234.281	70.36
234.5	60.06
234.719	80.62
234.937	73.05
235.156	67.68
235.374	55.5
235.593	77.76
235.811	48.96
236.03	55.09
236.249	34.32
236.467	43.4
236.686	27.88
236.904	41.91
237.123	37.51
237.341	48.43
237.559	43.37
237.778	45.63
237.996	35.92
238.215	34.22
238.433	44.38
238.652	45.15
238.87	46.29
239.088	18.56
239.307	29.91
239.525	5.34
239.743	-7.53
239.962	-2.48
240.18	27.68
240.398	30.83
240.617	39.79
240.835	65.79
241.053	72.29
241.271	68.72
241.49	54.6
241.708	68.97
241.926	31.14
242.144	0.92
242.363	8.25
242.581	26.12
242.799	-5.42
243.017	-21.68
243.235	12.8
243.453	14.42
243.672	9.33
243.89	36.37
244.108	66.7
244.326	57.2
244.544	53.77
244.762	55.48
244.98	62.92
245.198	63.93
245.416	75.69
245.634	76.84
245.852	99.31
246.07	62.88
246.288	46.6
246.506	31.05
246.724	24.71
246.942	25.34
247.16	39.37
247.378	45.32
247.596	58.67
247.814	59.37
248.032	55.49
248.25	46.54
248.468	63.87
248.685	50.65
248.903	54.56
249.121	46.99
249.339	52.7
249.557	44
249.775	22.01
249.992	8.37
250.21	13.4
250.428	-0.23
250.646	-14.49
250.863	15.49
251.081	37.7
251.299	46.1
251.517	55.55
251.734	72.67
251.952	71.03
252.17	73.15
252.387	51.48
252.605	57.51
252.823	37.38
253.04	47.1
253.258	50.95
253.475	66.27
253.693	69.87
253.911	92.19
254.128	69.09
254.346	61.77
254.563	60.8
254.781	62.77
254.998	59.76
255.216	41.82
255.433	38.41
255.651	32.25
255.868	21.36
256.086	1.88
256.303	11.5
256.521	30.11
256.738	35.91
256.956	29.77
257.173	36.74
257.39	43.66
257.608	35.33
257.825	34.89
258.043	42.74
258.26	45.07
258.477	45.55
258.695	42.82
258.912	48.6
259.129	49.11
259.346	62.45
259.564	91.24
259.781	121.23
259.998	87.85
260.216	92.58
260.433	90.22
260.65	73.63
260.867	45.89
261.084	57.58
261.302	30.17
261.519	36.66
261.736	22.01
261.953	38.12
262.17	27.77
262.387	43.98
262.604	46.09
262.822	65.54
263.039	65.28
263.256	83.85
263.473	76.07
263.69	87.21
263.907	60.23
264.124	48.44
264.341	37.12
264.558	45.98
264.775	24.19
264.992	43.5
265.209	48.69
265.426	51.11
265.643	49.06
265.86	39.79
266.077	20.2
266.294	17.41
266.51	18.11
266.727	13.53
266.944	22.63
267.161	40.84
267.378	32.55
267.595	55.82
267.812	57.26
268.028	68.81
268.245	67.41
268.462	64.66
268.679	22.93
268.896	36.11
269.112	14.25
269.329	8.34
269.546	35.04
269.763	28.54
269.979	19.03
270.196	41.32
270.413	63.16
270.629	54.51
270.846	79.09
271.063	71.18
271.279	68.1
271.496	43.16
271.712	22.11
271.929	-16.28
272.146	-25.01
272.362	14.57
272.579	18.23
272.795	36.74
273.012	48.65
273.228	60.04
273.445	45.92
273.661	50.08
273.878	39.11
274.094	36.18
274.311	33.46
274.527	30.85
274.744	21.09
274.96	28.5
275.177	2.38
275.393	5.95
275.609	2.71
275.826	17.95
276.042	20.84
276.259	63.18
276.475	38.14
276.691	49.54
276.908	34.89
277.124	40.02
277.34	40.65
277.557	46.26
277.773	33.69
277.989	42.56
278.205	30.48
278.422	33.18
278.638	33.47
278.854	56.81
279.07	58.7
279.286	67.71
279.503	51.84
279.719	61.46
279.935	45.17
280.151	57.47
280.367	53.82
280.583	59.36
280.799	61.84
281.016	66.91
281.232	51.32
281.448	53.7
281.664	43.48
281.88	25.88
282.096	27.22
282.312	20.85
282.528	14.77
282.744	9.15
282.96	12.28
283.176	17.55
283.392	2.79
283.608	10.41
283.824	24.29
284.04	-1.78
284.256	6.69
284.471	18.46
284.687	7.72
284.903	11.95
285.119	47.76
285.335	42.74
285.551	22.14
285.767	44.58
285.982	35.38
286.198	36.5
286.414	30.39
286.63	47.27
286.846	24.74
287.061	28.86
287.277	20
287.493	18.86
287.709	28.01
287.924	45.41
288.14	60.13
288.356	74.96
288.571	83.03
288.787	70.86
289.003	65.44
289.218	61.9
289.434	49.53
289.65	45.16
289.865	24.01
290.081	36.93
290.296	32.15
290.512	33.84
290.727	30.65
290.943	60.3
291.159	60.48
291.374	62.1
291.59	51.87
291.805	56.23
292.021	52.91
292.236	52.06
292.451	45.21
292.667	49.22
292.882	42.76
293.098	37.99
293.313	47.82
293.529	54.14
293.744	56.78
293.959	65.38
294.175	77.23
294.39	63.33
294.605	63.91
294.821	52.2
295.036	53.61
295.251	33.95
295.467	36.01
295.682	8.01
295.897	28.61
296.112	43.82
296.328	46.55
296.543	57.11
296.758	60.12
296.973	63.63
297.188	65.67
297.404	54.73
297.619	51.85
297.834	50.94
298.049	44.38
298.264	31.8
298.479	40.09
298.694	28.14
298.909	28.99
299.125	31.97
299.34	22.3
299.555	23.37
299.77	21.81
299.985	21.02
300.2	7.37
300.415	3.85
300.63	7.33
300.845	17.71
301.06	22.07
301.275	26.94
301.49	52.76
301.704	45.17
301.919	49.75
302.134	60.53
302.349	61.59
302.564	43.96
302.779	38.56
302.994	30.06
303.209	26.51
303.423	27.18
303.638	21.18
303.853	33.92
304.068	45.25
304.283	40.97
304.497	30.17
304.712	44.14
304.927	37.71
305.142	40.54
305.356	35.95
305.571	59.26
305.786	47.21
306	40.72
306.215	32.09
306.43	41.29
306.644	49.4
306.859	50.86
307.074	59.47
307.288	54.9
307.503	40.95
307.717	21.71
307.932	29.11
308.147	35.8
308.361	45.69
308.576	51.27
308.79	49.02
309.005	50.25
309.219	23.14
309.434	19.39
309.648	29.37
309.863	37.61
310.077	20.29
310.292	25.88
310.506	11.84
310.72	5.75
310.935	-0.06
311.149	18.93
311.364	12.72
311.578	18.52
311.792	25.02
312.007	35.05
312.221	30.59
312.435	33.07
312.649	33.19
312.864	24.17
313.078	-5.75
313.292	-8.45
313.507	22.53
313.721	47.18
313.935	43.83
314.149	45.28
314.363	37.34
314.578	33.36
314.792	24.65
315.006	31.26
315.22	50.95
315.434	58.12
315.648	46.67
315.862	44.59
316.077	33.32
316.291	26.22
316.505	19.7
316.719	50.11
316.933	64.2
317.147	55.21
317.361	39.17
317.575	36.68
317.789	23.42
318.003	8.17
318.217	30.95
318.431	40.75
318.645	55.05
318.859	58.87
319.073	46.44
319.287	42.34
319.5	43.63
319.714	33.77
319.928	50.64
320.142	54.64
320.356	65.05
320.57	63.41
320.784	62.04
320.997	60.43
321.211	68.41
321.425	53.6
321.639	29.92
321.853	25.67
322.066	4.21
322.28	-11.12
322.494	1.73
322.707	15.06
322.921	17.63
323.135	21.31
323.349	33.14
323.562	28.61
323.776	34.61
323.989	24.57
324.203	24.64
324.417	18.89
324.63	33.48
324.844	32.04
325.057	39.05
325.271	62.53
325.485	63.21
325.698	54.03
325.912	56.44
326.125	71.36
326.339	58.92
326.552	52.67
326.766	53.27
326.979	49.49
327.193	45.14
327.406	39.94
327.619	35.86
327.833	33.27
328.046	47.27
328.26	38.71
328.473	33.77
328.686	50.08
328.9	59.67
329.113	48.55
329.326	52.94
329.54	68.98
329.753	54.4
329.966	52.66
330.179	88.82
330.393	77.27
330.606	49.91
330.819	48.89
331.032	38.99
331.246	32.46
331.459	22.98
331.672	33.89
331.885	46
332.098	62.84
332.311	67.42
332.525	72.77
332.738	60.2
332.951	48.99
333.164	30.04
333.377	14.3
333.59	22.28
333.803	27.72
334.016	23.7
334.229	37.35
334.442	51.74
334.655	58.35
334.868	68.38
335.081	74.66
335.294	68.37
335.507	75
335.72	76.6
335.933	62.97
336.146	73.25
336.359	68.78
336.572	71.82
336.785	51.82
336.997	64.95
337.21	71.8
337.423	71.47
337.636	43.48
337.849	36.32
338.062	35.68
338.274	27.86
338.487	37.49
338.7	42.5
338.913	51.17
339.125	60.32
339.338	52.37
339.551	42
339.763	47.03
339.976	59.41
340.189	44.57
340.402	44.49
340.614	47.19
340.827	46.97
341.039	34.08
341.252	23.14
341.465	14.42
341.677	19.38
341.89	0.15
342.102	9.97
342.315	22.37
342.527	32.55
342.74	36.55
342.952	21.35
343.165	31.47
343.377	40.44
343.59	31.26
343.802	25.3
344.015	37.85
344.227	37.71
344.44	9.31
344.652	29.2
344.864	47.77
345.077	52.71
345.289	42.81
345.502	37.22
345.714	31.09
345.926	18.69
346.139	17.31
346.351	13.47
346.563	14.84
346.775	17.56
346.988	24.88
347.2	20.46
347.412	29.94
347.624	35.89
347.837	12.62
348.049	-0.05
348.261	1.76
348.473	-6.36
348.685	0.39
348.897	22.54
349.11	19.43
349.322	4.99
349.534	15.15
349.746	32.06
349.958	22.13
350.17	42.44
350.382	50.68
350.594	46.42
350.806	41.03
351.018	35.27
351.23	17.99
351.442	15.14
351.654	46.44
351.866	20.13
352.078	21.67
352.29	16.95
352.502	19.3
352.714	12.08
352.926	20.43
353.138	37.42
353.35	48.11
353.561	58.42
353.773	66.86
353.985	55.93
354.197	49.36
354.409	33.78
354.621	30.31
354.832	19.42
355.044	28.76
355.256	26.24
355.468	39.02
355.679	40.68
355.891	47.6
356.103	47.17
356.314	62.11
356.526	66.65
356.738	72.36
356.949	66.69
357.161	68.99
357.373	52.69
357.584	43.68
357.796	37.67
358.008	37.09
358.219	31.4
358.431	34.07
358.642	31.25
358.854	41.81
359.065	41.85
359.277	45.5
359.488	48.63
359.7	48.68
359.911	45.46
360.123	46.52
360.334	37.07
360.546	30.03
360.757	41.66
360.969	43.57
361.18	48.84
361.391	56.39
361.603	58.37
361.814	60.56
362.025	56.37
362.237	49.81
362.448	40.48
362.659	41.18
362.871	43.53
363.082	37.38
363.293	38.05
363.504	49.84
363.716	47.69
363.927	21.57
364.138	23.81
364.349	24.05
364.56	14.6
364.772	15.8
364.983	34.57
365.194	32.43
365.405	35.95
365.616	31.2
365.827	39.39
366.038	31.51
366.25	31.13
366.461	27.06
366.672	31.89
366.883	16.84
367.094	34.19
367.305	39.61
367.516	24.3
367.727	32.99
367.938	31.52
368.149	25.36
368.36	29.94
368.571	29.91
368.781	25.83
368.992	23.76
369.203	16.07
369.414	15.6
369.625	16.46
369.836	18.59
370.047	23.32
370.258	25.08
370.468	14.68
370.679	16.12
370.89	11.56
371.101	-2.04
371.312	-3.31
371.522	-3.46
371.733	6.58
371.944	9.74
372.155	27.17
372.365	13.52
372.576	15.77
372.787	12.77
372.997	18.38
373.208	23.68
373.419	41.05
373.629	42.3
373.84	41.23
374.05	34.87
374.261	28.63
374.472	31.68
374.682	31.85
374.893	35.68
375.103	38.11
375.314	35.35
375.524	35.02
375.735	24.25
375.945	17.35
376.156	26.29
376.366	31.19
376.577	15.63
376.787	19.16
376.997	18.04
377.208	13.2
377.418	11.17
377.629	25.78
377.839	37.45
378.049	52.47
378.26	57.34
378.47	58.41
378.68	62.42
378.89	60.14
379.101	39.87
379.311	36.24
379.521	32.6
379.732	20.92
379.942	26.67
380.152	38.72
380.362	44.43
380.572	38.99
380.783	33.96
380.993	23.83
381.203	14.35
381.413	-0.43
381.623	13.6
381.833	23.38
382.043	26.75
382.253	28.63
382.463	35.18
382.674	34.66
382.884	22.43
383.094	14.17
383.304	18.56
383.514	21.49
383.724	13.32
383.934	20.49
384.144	17.25
384.353	15.1
384.563	15.64
384.773	19.95
384.983	16.04
385.193	14.99
385.403	12.07
385.613	10.74
385.823	7.91
386.033	9.51
386.242	19.99
386.452	22.64
386.662	27.57
386.872	31.08
387.082	28.65
387.291	15.24
387.501	14.43
387.711	6.08
387.921	2.56
388.13	4.51
388.34	9.77
388.55	7.26
388.759	5.61
388.969	5.72
389.179	5.67
389.388	7.85
389.598	11.55
389.807	10.94
390.017	12.71
390.227	14.58
390.436	13.17
390.646	10.93
390.855	11.03
391.065	8.15
391.274	6.55
391.484	4.62
391.693	4.62
391.903	5.57
392.112	5.92
392.322	5.06
392.531	6
392.74	5.4
392.95	5.85
393.159	6.74
393.369	7.08
393.578	8.38
393.787	9.19
393.997	8.94
394.206	8.37
394.415	7.75
394.625	6.94
394.834	4.99
395.043	5.23
395.252	5.68
395.462	6.83
395.671	6.07
395.88	7.68
396.089	7.68
396.298	6.9
396.508	6.61
396.717	6.61
396.926	5.6
397.135	4.87
397.344	5.34
397.553	4.89
397.762	4.4
397.971	4.53
398.181	4.54
398.39	3.7
398.599	3.54
398.808	3.53
399.017	4.13
399.226	4.39
399.435	4.84
399.644	5.34
399.853	6.04
400.062	6.29
400.27	6.18
400.479	5.88
400.688	5.26
400.897	5.31
401.106	5
401.315	5.2
401.524	5.26
401.733	5.09
401.941	4.75
402.15	4.35
402.359	4.01
402.568	4.15
402.777	4.43
402.985	4.29
403.194	4.62
403.403	4.71
403.612	4.41
403.82	4.32
404.029	4.34
404.238	4.27
404.446	4.29
404.655	4.48
404.864	4.62
405.072	4.73
405.281	4.65
405.489	4.45
405.698	4.38
405.906	4.35
406.115	4.17
406.324	4.13
406.532	4.07
406.741	4.02
406.949	4.06
407.158	4.07
407.366	3.91
407.574	4.13
407.783	4.05
407.991	3.87
408.2	3.87
408.408	4.12
408.617	4.05
408.825	4.15
409.033	4.17
409.242	4.18
409.45	4
409.658	3.96
409.867	3.88
410.075	3.79
410.283	3.75
410.491	3.74
410.7	3.62
410.908	3.64
411.116	3.69
411.324	3.65
411.533	3.66
411.741	3.66
411.949	3.56
412.157	3.59
412.365	3.74
412.573	3.69
412.781	3.73
412.99	3.71
413.198	3.8
413.406	3.75
413.614	3.99
413.822	4.08
414.03	4.17
414.238	3.93
414.446	3.78
414.654	3.53
414.862	3.44
415.07	3.5
415.278	3.58
415.486	3.57
415.694	3.5
415.902	3.57
416.109	3.48
416.317	3.6
416.525	3.63
416.733	3.62
416.941	3.68
417.149	3.53
417.357	3.52
417.564	3.46
417.772	3.53
417.98	3.44
418.188	3.6
418.395	3.43
418.603	3.36
418.811	3.49
419.019	3.37
419.226	3.44
419.434	3.65
419.642	3.99
419.849	3.88
420.057	3.93
420.265	3.87
420.472	3.68
420.68	3.42
420.887	3.49
421.095	3.39
421.302	3.14
421.51	3.15
421.717	3.25
421.925	3.28
422.132	3.36
422.34	3.59
422.547	3.5
422.755	3.49
422.962	3.45
423.17	3.6
423.377	3.64
423.585	3.83
423.792	3.74
423.999	3.61
424.207	3.48
424.414	3.33
424.621	3.35
424.829	3.17
425.036	3.27
425.243	3.21
425.451	3.2
425.658	3.16
425.865	3.59
426.072	3.46
426.28	3.49
426.487	3.6
426.694	3.48
426.901	3.27
427.108	3.39
427.315	3.3
427.523	3.22
427.73	3.12
427.937	2.95
428.144	2.91
428.351	3
428.558	3.15
428.765	3.24
428.972	3.29
429.179	3.32
429.386	3.35
429.593	3.24
429.8	3.28
430.007	3.24
430.214	3.25
430.421	3.31
430.628	3.27
430.835	3.29
431.042	3.3
431.249	3.31
431.456	3.33
431.662	3.5
431.869	3.57
432.076	3.65
432.283	3.58
432.49	3.47
432.697	3.24
432.903	3.26
433.11	3.5
433.317	3.52
433.524	3.59
433.73	3.56
433.937	3.37
434.144	3.13
434.35	3.15
434.557	3.03
434.764	3.16
434.97	3.24
435.177	3.28
435.384	3.21
435.59	3.33
435.797	3.26
436.003	3.3
436.21	3.21
436.416	3.23
436.623	3.09
436.829	3.08
437.036	3.07
437.242	3.1
437.449	3.03
437.655	3.11
437.862	3.26
438.068	3.13
438.275	3.32
438.481	3.3
438.687	3.31
438.894	3.32
439.1	3.4
439.307	3.23
439.513	3.34
439.719	3.5
439.926	3.35
440.132	3.55
440.338	3.51
440.544	3.44
440.751	3.22
440.957	3.24
441.163	2.98
441.369	3.12
441.575	3.08
441.782	3.25
441.988	3.22
442.194	3.29
442.4	3.24
442.606	3.31
442.812	3.22
443.018	3.18
443.224	3.08
443.431	3.01
443.637	2.97
443.843	2.88
444.049	2.9
444.255	2.91
444.461	2.84
444.667	2.75
444.873	2.7
445.079	2.83
445.284	2.83
445.49	2.89
445.696	2.94
445.902	2.94
446.108	2.88
446.314	2.95
446.52	3.05
446.726	3.04
446.931	3.13
447.137	3.13
447.343	3.04
447.549	2.82
447.755	2.8
447.96	2.85
448.166	2.87
448.372	2.94
448.578	2.99
448.783	3.12
448.989	3.14
449.195	3.02
449.4	3.02
449.606	3.01
449.812	2.89
450.017	2.82
450.223	2.86
450.428	2.84
450.634	2.93
450.84	2.94
451.045	3.07
451.251	3.14
451.456	3.17
451.662	3.1
451.867	3.22
452.073	2.97
452.278	2.89
452.483	2.86
452.689	2.91
452.894	2.85
453.1	2.94
453.305	2.96
453.51	3.01
453.716	3.01
453.921	3.05
454.127	3.13
454.332	3.04
454.537	2.99
454.742	2.93
454.948	2.8
455.153	2.8
455.358	2.87
455.563	2.91
455.769	3.01
455.974	3.07
456.179	2.98
456.384	2.86
456.589	2.9
456.795	2.85
457	2.77
457.205	2.65
457.41	2.75
457.615	2.62
457.82	2.58
458.025	2.61
458.23	2.79
458.435	2.81
458.64	2.78
458.845	2.84
459.05	2.79
459.255	2.83
459.46	2.82
459.665	2.93
459.87	2.96
460.075	3.14
460.28	3.13
460.485	3.17
460.69	3.08
460.895	2.96
461.099	2.86
461.304	2.79
461.509	2.74
461.714	2.78
461.919	2.89
462.123	2.84
462.328	2.92
462.533	2.91
462.738	2.97
462.942	2.92
463.147	2.98
463.352	2.85
463.556	2.95
463.761	2.85
463.966	2.82
464.17	2.84
464.375	2.92
464.58	2.83
464.784	2.88
464.989	2.89
465.193	2.91
465.398	2.92
465.602	3.02
465.807	2.96
466.011	2.97
466.216	2.88
466.42	2.93
466.625	2.92
466.829	2.93
467.034	3.03
467.238	3.16
467.443	3.17
467.647	3.11
467.851	3.12
468.056	3.02
468.26	3
