Data from Ofav_PP_310_Reflection_1.txt Node
Date: Tue Jul 27 19:01:01 EDT 2021
User: USUARIO
Spectrometer: FLMT01687
Trigger mode: 0
Integration Time (sec): 8.500000E-1
Scans to average: 2
Electric dark correction enabled: true
Nonlinearity correction enabled: false
Boxcar width: 2
XAxis mode: Wavelengths
Number of Pixels in Spectrum: 3648
>>>>>Begin Spectral Data<<<<<
179.494	-202.96
179.716	-64.78
179.937	-5.35
180.158	-40.58
180.38	24.75
180.601	-17.32
180.823	-14.83
181.044	15
181.265	-9.84
181.486	21.67
181.708	35.75
181.929	-62.05
182.15	-52.87
182.372	-135.06
182.593	22.89
182.814	70.93
183.035	89.25
183.257	91.96
183.478	72.45
183.699	48.71
183.92	54.95
184.141	57.86
184.363	52.98
184.584	63.98
184.805	78.11
185.026	63.71
185.247	57
185.468	36.47
185.689	29.67
185.91	24.09
186.132	10.73
186.353	11.51
186.574	8.98
186.795	-5.37
187.016	-7.21
187.237	-10.6
187.458	1.73
187.679	10.39
187.9	2.59
188.121	-0.26
188.342	-0.92
188.563	-12.13
188.784	-1.28
189.005	37.44
189.226	51.58
189.447	42.56
189.667	49.08
189.888	54.54
190.109	37.07
190.33	-2.36
190.551	-9.65
190.772	-17.3
190.993	-14.46
191.214	2.74
191.434	12.31
191.655	33.11
191.876	34.62
192.097	39.54
192.318	45.36
192.538	46.73
192.759	42.35
192.98	52.08
193.201	51.97
193.421	34.13
193.642	28.4
193.863	24.02
194.083	20.55
194.304	22.18
194.525	19.1
194.745	4.56
194.966	-33.49
195.187	-71.31
195.407	-63.79
195.628	-57.02
195.848	-20.24
196.069	-0.78
196.29	67.49
196.51	74.37
196.731	45.74
196.951	46.5
197.172	32.77
197.392	14.69
197.613	15.1
197.833	35
198.054	28.95
198.274	17.03
198.495	15.2
198.715	-7.77
198.936	-40.34
199.156	10.35
199.377	47.85
199.597	-11.13
199.817	-1.76
200.038	22.31
200.258	14.76
200.479	-3.07
200.699	39.37
200.919	63.83
201.14	52.75
201.36	34.35
201.58	63.86
201.801	64.92
202.021	37.14
202.241	30.75
202.461	23.72
202.682	-4.35
202.902	-34.67
203.122	-29.01
203.342	-28.14
203.563	3.29
203.783	14.24
204.003	29.71
204.223	19.17
204.443	13.33
204.663	11.51
204.884	4.18
205.104	-1.04
205.324	17.37
205.544	16.66
205.764	10.41
205.984	11.29
206.204	14.51
206.424	10
206.644	39.34
206.864	38.1
207.084	35.82
207.304	24.26
207.525	22.74
207.745	27.53
207.964	53.14
208.184	49.65
208.404	41.06
208.624	35.6
208.844	31.98
209.064	18.1
209.284	20.37
209.504	39.91
209.724	60.02
209.944	42.26
210.164	54.18
210.384	26.26
210.604	-11.28
210.823	4.79
211.043	21.96
211.263	18.69
211.483	29.12
211.703	25.65
211.922	23.8
212.142	39.51
212.362	18.98
212.582	6.37
212.801	13.69
213.021	-15.36
213.241	-42.01
213.461	-68.14
213.68	-47.93
213.9	-55.46
214.12	-21.21
214.339	8.05
214.559	20.34
214.779	19.79
214.998	14.25
215.218	0.16
215.438	4.73
215.657	2.68
215.877	5.17
216.096	12.96
216.316	23.49
216.535	9.98
216.755	15.17
216.974	39.46
217.194	51.77
217.413	53.68
217.633	58.39
217.852	48.02
218.072	34.97
218.291	16.79
218.511	16.78
218.73	30.13
218.95	39.31
219.169	56.36
219.389	44.62
219.608	47.89
219.827	21.87
220.047	-1.57
220.266	4.37
220.485	-2.25
220.705	13.45
220.924	13.22
221.143	9.1
221.363	-1.31
221.582	18.16
221.801	13.37
222.021	14.63
222.24	25.64
222.459	14.37
222.678	1.67
222.897	-20.5
223.117	-10.28
223.336	-14.8
223.555	0.15
223.774	13.1
223.993	13.67
224.213	-7.45
224.432	-14.95
224.651	1.35
224.87	-7.16
225.089	-0.03
225.308	13.21
225.527	23.95
225.746	17.43
225.965	41.59
226.184	31.36
226.404	21.72
226.623	34.95
226.842	25.81
227.061	13.79
227.28	22.13
227.499	27.82
227.718	12.77
227.936	9.73
228.155	21.21
228.374	23.88
228.593	16.73
228.812	23.41
229.031	23.75
229.25	27.86
229.469	20.88
229.688	18.62
229.907	-6.84
230.125	28.17
230.344	-3.27
230.563	15.15
230.782	27.24
231.001	21.42
231.22	18.53
231.438	15.24
231.657	9.38
231.876	-5.81
232.095	14.32
232.313	0.86
232.532	24.18
232.751	12.01
232.969	33.41
233.188	42.72
233.407	36.89
233.625	22.95
233.844	30.45
234.063	12.61
234.281	-15.64
234.5	-9.44
234.719	14.92
234.937	0.31
235.156	4.72
235.374	12.2
235.593	26.82
235.811	6.45
236.03	0.7
236.249	7.65
236.467	10.41
236.686	14.11
236.904	22.92
237.123	35.16
237.341	29.4
237.559	39.66
237.778	30.43
237.996	20.19
238.215	32.59
238.433	40.34
238.652	21.27
238.87	35.62
239.088	39.8
239.307	20.77
239.525	-4.82
239.743	2.07
239.962	-4.01
240.18	9.53
240.398	25.94
240.617	33.46
240.835	39.15
241.053	33.74
241.271	38.25
241.49	39.11
241.708	63.86
241.926	44.21
242.144	38.63
242.363	-0.78
242.581	-6.93
242.799	-19.16
243.017	-19.98
243.235	-11.15
243.453	28.7
243.672	26.87
243.89	15.3
244.108	23.87
244.326	20.31
244.544	4.46
244.762	7.71
244.98	29.86
245.198	24.91
245.416	34.42
245.634	43.92
245.852	43.63
246.07	18.2
246.288	28.74
246.506	21.25
246.724	20.46
246.942	15.38
247.16	25.52
247.378	14.74
247.596	16.59
247.814	4.89
248.032	9.58
248.25	7.97
248.468	9.28
248.685	16.8
248.903	45.49
249.121	48.84
249.339	54.68
249.557	70.79
249.775	40.53
249.992	29.38
250.21	17.49
250.428	4.07
250.646	-13.56
250.863	7.37
251.081	-0.68
251.299	13.93
251.517	20.04
251.734	41.89
251.952	36.7
252.17	65.56
252.387	22.3
252.605	34.23
252.823	24.14
253.04	27.64
253.258	26.92
253.475	45.22
253.693	43.84
253.911	48.79
254.128	56.25
254.346	60.26
254.563	57.96
254.781	54.78
254.998	40.1
255.216	16.76
255.433	5.67
255.651	12.37
255.868	1.85
256.086	12.16
256.303	11.21
256.521	20.49
256.738	25.72
256.956	23.78
257.173	18.9
257.39	23.13
257.608	13.96
257.825	17.18
258.043	28.23
258.26	43.05
258.477	40.74
258.695	35.08
258.912	21.78
259.129	10.2
259.346	1.61
259.564	0.94
259.781	19.6
259.998	34.23
260.216	42.09
260.433	44.22
260.65	52.84
260.867	45.07
261.084	53.95
261.302	53.3
261.519	52.81
261.736	35.07
261.953	38.76
262.17	25.24
262.387	8.54
262.604	-1.92
262.822	2.68
263.039	1.88
263.256	8.82
263.473	46.54
263.69	62.92
263.907	24.54
264.124	52.34
264.341	53.88
264.558	52.29
264.775	57.54
264.992	79.04
265.209	55.09
265.426	48.02
265.643	42.45
265.86	31.01
266.077	21.99
266.294	23.59
266.51	24.44
266.727	13.4
266.944	17.62
267.161	18.02
267.378	14.79
267.595	19.58
267.812	29.15
268.028	41.6
268.245	45.88
268.462	45.02
268.679	37.18
268.896	36.8
269.112	20.96
269.329	12.73
269.546	21.28
269.763	6.88
269.979	7.51
270.196	8.41
270.413	10.02
270.629	2.19
270.846	26.36
271.063	12.84
271.279	-7.31
271.496	-8.89
271.712	-20.9
271.929	-33.94
272.146	-57.96
272.362	-8.4
272.579	11.38
272.795	28.84
273.012	23.32
273.228	29.08
273.445	37.12
273.661	39.36
273.878	23.41
274.094	12.69
274.311	29.26
274.527	13.12
274.744	-3.8
274.96	0.14
275.177	0.67
275.393	-8.77
275.609	-0.22
275.826	5.66
276.042	5.24
276.259	27.76
276.475	21.1
276.691	19.84
276.908	22.99
277.124	23.62
277.34	18.83
277.557	2.91
277.773	7.37
277.989	21.65
278.205	27.78
278.422	37.46
278.638	42.96
278.854	49.96
279.07	44.26
279.286	28.14
279.503	17.98
279.719	32.81
279.935	29.01
280.151	24.68
280.367	38.34
280.583	28.49
280.799	22.66
281.016	10.76
281.232	10.39
281.448	10.23
281.664	23.62
281.88	24.01
282.096	25.78
282.312	20.71
282.528	3.98
282.744	-21.78
282.96	-6.4
283.176	-8.84
283.392	-8.18
283.608	-0.27
283.824	18.15
284.04	-15.25
284.256	-0.57
284.471	11.65
284.687	16.92
284.903	6.38
285.119	14.52
285.335	13.53
285.551	4.41
285.767	17.23
285.982	20.51
286.198	40.02
286.414	19.03
286.63	13.22
286.846	-9.08
287.061	-8.82
287.277	-18.9
287.493	-21.8
287.709	-19.89
287.924	6.56
288.14	12.01
288.356	25.56
288.571	41.36
288.787	30.98
289.003	10.21
289.218	9.01
289.434	6.62
289.65	8.22
289.865	8.61
290.081	22.07
290.296	11.04
290.512	-10.8
290.727	-11.74
290.943	-16.5
291.159	-54.12
291.374	-49.74
291.59	1.46
291.805	4.88
292.021	21.19
292.236	23.41
292.451	21.92
292.667	1.83
292.882	0.36
293.098	-11.1
293.313	-0.02
293.529	7.32
293.744	17.72
293.959	19.83
294.175	23.22
294.39	10.84
294.605	9.25
294.821	3.41
295.036	-12.13
295.251	-15.13
295.467	-2.88
295.682	-3.83
295.897	7.24
296.112	20.17
296.328	8.6
296.543	31.09
296.758	34.79
296.973	33.16
297.188	39.21
297.404	42.53
297.619	36.23
297.834	37.81
298.049	55.53
298.264	50.31
298.479	61.17
298.694	49.62
298.909	31.13
299.125	19.59
299.34	16.9
299.555	13.51
299.77	15.8
299.985	26.02
300.2	19.7
300.415	7.96
300.63	-9.08
300.845	3.98
301.06	10.28
301.275	13.92
301.49	14.12
301.704	13.4
301.919	9.09
302.134	8.17
302.349	10.63
302.564	18.35
302.779	4.58
302.994	-1.02
303.209	1.07
303.423	6.16
303.638	-13.67
303.853	22.27
304.068	27.94
304.283	29.38
304.497	18.59
304.712	31.08
304.927	23.3
305.142	34.81
305.356	24.04
305.571	22.65
305.786	24.28
306	13.9
306.215	-1.1
306.43	13.71
306.644	33.34
306.859	29.61
307.074	37.18
307.288	38.42
307.503	36.98
307.717	11.99
307.932	9.16
308.147	14.4
308.361	17.11
308.576	-12.26
308.79	-1.51
309.005	-6.38
309.219	-19.63
309.434	-26.43
309.648	-9.14
309.863	-9.4
310.077	10.78
310.292	19
310.506	14.65
310.72	20.38
310.935	7.66
311.149	-0.04
311.364	-21.68
311.578	-6.59
311.792	-4.08
312.007	9.28
312.221	12.13
312.435	21.2
312.649	15.8
312.864	12.51
313.078	20.48
313.292	20.69
313.507	4.17
313.721	29.24
313.935	24.53
314.149	15.42
314.363	17.88
314.578	20.3
314.792	14.57
315.006	16.28
315.22	28.23
315.434	18.8
315.648	21.95
315.862	17.77
316.077	18.16
316.291	16.89
316.505	23.37
316.719	23.34
316.933	29.24
317.147	29.15
317.361	21.82
317.575	25.67
317.789	17.07
318.003	12.64
318.217	15.56
318.431	4.77
318.645	1.71
318.859	11.33
319.073	7.11
319.287	4.06
319.5	-2.19
319.714	-18.28
319.928	-25.61
320.142	-39.72
320.356	-15.97
320.57	15.7
320.784	26.74
320.997	46
321.211	63.34
321.425	50.02
321.639	39.51
321.853	34.4
322.066	19.17
322.28	-0.82
322.494	0.48
322.707	-1.89
322.921	-0.69
323.135	-4.09
323.349	3.54
323.562	9
323.776	12.46
323.989	9.13
324.203	9.59
324.417	-12.6
324.63	18.04
324.844	7.19
325.057	5.64
325.271	17.04
325.485	41.81
325.698	20.85
325.912	36.82
326.125	41.29
326.339	34.11
326.552	33.59
326.766	29.96
326.979	23.91
327.193	18.57
327.406	17.34
327.619	4.79
327.833	15.53
328.046	24.69
328.26	13.99
328.473	8.88
328.686	9.56
328.9	6.56
329.113	-2.77
329.326	-11.53
329.54	-20.78
329.753	-35.39
329.966	-23.64
330.179	-36.33
330.393	20.76
330.606	22
330.819	28.41
331.032	20.75
331.246	36.8
331.459	31.41
331.672	29.95
331.885	35.59
332.098	50.41
332.311	40.6
332.525	28.41
332.738	36.74
332.951	36.18
333.164	17.52
333.377	11.01
333.59	16.76
333.803	18.39
334.016	23.31
334.229	26.12
334.442	38.01
334.655	44.67
334.868	50.22
335.081	46.66
335.294	45.68
335.507	39.23
335.72	30.22
335.933	12.28
336.146	11.25
336.359	5.74
336.572	12.19
336.785	24.57
336.997	42.19
337.21	37.47
337.423	38.5
337.636	29.85
337.849	-1.07
338.062	-10.21
338.274	6.72
338.487	15.34
338.7	13.74
338.913	13.4
339.125	16.94
339.338	-5.93
339.551	-20.06
339.763	-33.42
339.976	-24.75
340.189	-29.67
340.402	-15.73
340.614	-29.05
340.827	-18.08
341.039	-20.61
341.252	-20.09
341.465	-52.67
341.677	-34.09
341.89	-21.14
342.102	8.16
342.315	19.59
342.527	40.45
342.74	48.77
342.952	29.44
343.165	17.32
343.377	29.49
343.59	23.73
343.802	10.22
344.015	26.37
344.227	39.85
344.44	17.7
344.652	9.16
344.864	22.55
345.077	18.41
345.289	18.08
345.502	11.8
345.714	9.4
345.926	-8.22
346.139	-0.72
346.351	-0.86
346.563	0.1
346.775	-1.66
346.988	4.31
347.2	-6.92
347.412	-21.89
347.624	-31.65
347.837	-26.19
348.049	-20.58
348.261	-17.57
348.473	-10.01
348.685	5.73
348.897	-6.93
349.11	0.77
349.322	-4.75
349.534	-10.52
349.746	-10.93
349.958	0.27
350.17	-4.73
350.382	7.98
350.594	-4.27
350.806	1.3
351.018	5.99
351.23	4.74
351.442	-8.38
351.654	27.66
351.866	17.84
352.078	17.9
352.29	19.31
352.502	19.78
352.714	20.05
352.926	42.8
353.138	43.12
353.35	45.89
353.561	42.25
353.773	32.01
353.985	10.45
354.197	4.51
354.409	10.12
354.621	16.44
354.832	23.44
355.044	21.7
355.256	30.51
355.468	22.32
355.679	27.48
355.891	26.7
356.103	35.14
356.314	41.29
356.526	38.44
356.738	23.55
356.949	27.64
357.161	28.32
357.373	14.1
357.584	12.87
357.796	29.61
358.008	27.99
358.219	22.02
358.431	14.37
358.642	23.99
358.854	24.38
359.065	14.35
359.277	12.13
359.488	29.26
359.7	24.89
359.911	21.29
360.123	19.35
360.334	13.79
360.546	-9.62
360.757	-2.85
360.969	-9.85
361.18	-8.28
361.391	-8.39
361.603	-2.96
361.814	2.85
362.025	0.49
362.237	15.14
362.448	24.27
362.659	20.33
362.871	17.76
363.082	11.61
363.293	9.6
363.504	2.95
363.716	13.86
363.927	-5.68
364.138	9.32
364.349	6.04
364.56	4.66
364.772	8.83
364.983	21.08
365.194	17.85
365.405	16.68
365.616	14.5
365.827	23.29
366.038	29.67
366.25	32.29
366.461	34.27
366.672	46.68
366.883	39.78
367.094	39.41
367.305	29.91
367.516	34.45
367.727	36.83
367.938	13.05
368.149	10.52
368.36	14.51
368.571	2.96
368.781	-1.98
368.992	-4.37
369.203	-18.89
369.414	-14.72
369.625	-13.82
369.836	-6.28
370.047	0.79
370.258	2.71
370.468	-7.11
370.679	-6.74
370.89	-16.05
371.101	-11.02
371.312	5.23
371.522	11.76
371.733	20.21
371.944	22.73
372.155	19.56
372.365	8.16
372.576	12.04
372.787	11.51
372.997	16.52
373.208	21.52
373.419	30.73
373.629	33.2
373.84	25.62
374.05	16.89
374.261	15.59
374.472	19.27
374.682	9.24
374.893	18.37
375.103	16.92
375.314	15.51
375.524	-0.4
375.735	6.78
375.945	2.12
376.156	4.11
376.366	9.83
376.577	4.31
376.787	3.41
376.997	15.01
377.208	24.98
377.418	24.27
377.629	36.06
377.839	44.9
378.049	29.36
378.26	36.31
378.47	34.96
378.68	29.22
378.89	19.71
379.101	23.75
379.311	7.02
379.521	-8.9
379.732	-7.3
379.942	1.35
380.152	-8.01
380.362	2.66
380.572	2.6
380.783	4.94
380.993	2.29
381.203	-0.31
381.413	-5.51
381.623	2.07
381.833	4.07
382.043	0.67
382.253	9.48
382.463	8.19
382.674	11.17
382.884	5.23
383.094	3.77
383.304	0.87
383.514	8.61
383.724	4.93
383.934	9.91
384.144	6.79
384.353	9.42
384.563	5.4
384.773	8.93
384.983	5.98
385.193	7.2
385.403	2.66
385.613	-0.34
385.823	2.18
386.033	4.1
386.242	12.35
386.452	12.87
386.662	19.49
386.872	17.49
387.082	12.79
387.291	10.23
387.501	11.94
387.711	8.83
387.921	11.15
388.13	14.66
388.34	14.09
388.55	14.08
388.759	12.61
388.969	11.59
389.179	13.28
389.388	13.9
389.598	13.74
389.807	11.26
390.017	7.4
390.227	8.25
390.436	6.55
390.646	7.14
390.855	7.16
391.065	8.33
391.274	7.1
391.484	7.7
391.693	8.18
391.903	11.22
392.112	11.56
392.322	9.8
392.531	8.34
392.74	6.64
392.95	5.64
393.159	6.34
393.369	6.89
393.578	8.38
393.787	9.09
393.997	10.35
394.206	11.12
394.415	11.16
394.625	10.59
394.834	10.32
395.043	9.65
395.252	8.46
395.462	8.88
395.671	9.15
395.88	9.36
396.089	9.74
396.298	9.47
396.508	9.22
396.717	9.27
396.926	8.99
397.135	8.77
397.344	9.18
397.553	9.23
397.762	8.58
397.971	8.56
398.181	8.78
398.39	8.48
398.599	8.23
398.808	8.88
399.017	9.31
399.226	8.96
399.435	9.2
399.644	9.79
399.853	9.55
400.062	9.6
400.27	9.21
400.479	8.75
400.688	8.78
400.897	8.9
401.106	8.97
401.315	9.52
401.524	9.69
401.733	9.5
401.941	9.63
402.15	9.29
402.359	9.15
402.568	9.3
402.777	9.2
402.985	9.03
403.194	9.25
403.403	9.27
403.612	9.17
403.82	9.16
404.029	9.16
404.238	8.97
404.446	9.01
404.655	9.07
404.864	9.18
405.072	9.19
405.281	9.26
405.489	9.14
405.698	8.94
405.906	8.86
406.115	8.8
406.324	8.69
406.532	8.61
406.741	8.72
406.949	8.72
407.158	8.67
407.366	8.53
407.574	8.64
407.783	8.57
407.991	8.6
408.2	8.7
408.408	8.94
408.617	8.93
408.825	8.97
409.033	8.82
409.242	8.68
409.45	8.6
409.658	8.55
409.867	8.64
410.075	8.66
410.283	8.64
410.491	8.56
410.7	8.41
410.908	8.25
411.116	8.32
411.324	8.25
411.533	8.28
411.741	8.2
411.949	8.15
412.157	8.11
412.365	8.37
412.573	8.24
412.781	8.39
412.99	8.43
413.198	8.49
413.406	8.34
413.614	8.48
413.822	8.38
414.03	8.42
414.238	8.24
414.446	8.12
414.654	8.14
414.862	8.23
415.07	8.03
415.278	7.97
415.486	7.99
415.694	7.75
415.902	7.69
416.109	7.81
416.317	7.91
416.525	7.91
416.733	8.02
416.941	8
417.149	7.97
417.357	7.99
417.564	7.81
417.772	7.94
417.98	7.93
418.188	7.97
418.395	7.87
418.603	7.95
418.811	7.91
419.019	7.91
419.226	7.83
419.434	7.92
419.642	8.05
419.849	7.81
420.057	7.79
420.265	7.85
420.472	7.75
420.68	7.67
420.887	7.76
421.095	7.84
421.302	7.71
421.51	7.67
421.717	7.7
421.925	7.68
422.132	7.6
422.34	7.72
422.547	7.78
422.755	7.81
422.962	7.76
423.17	7.79
423.377	7.85
423.585	7.79
423.792	7.63
423.999	7.6
424.207	7.51
424.414	7.42
424.621	7.44
424.829	7.31
425.036	7.5
425.243	7.39
425.451	7.23
425.658	7.16
425.865	7.38
426.072	7.23
426.28	7.29
426.487	7.58
426.694	7.48
426.901	7.31
427.108	7.36
427.315	7.3
427.523	6.99
427.73	7.01
427.937	7.11
428.144	7.07
428.351	7.05
428.558	7.32
428.765	7.35
428.972	7.39
429.179	7.41
429.386	7.49
429.593	7.32
429.8	7.26
430.007	7.07
430.214	6.94
430.421	6.97
430.628	6.97
430.835	7.16
431.042	7.26
431.249	7.38
431.456	7.35
431.662	7.47
431.869	7.41
432.076	7.42
432.283	7.34
432.49	7.38
432.697	7.3
432.903	7.27
433.11	7.43
433.317	7.45
433.524	7.29
433.73	7.21
433.937	7.11
434.144	6.98
434.35	6.96
434.557	6.96
434.764	6.91
434.97	7.03
435.177	7.09
435.384	7.09
435.59	7.16
435.797	7.24
436.003	7.35
436.21	7.27
436.416	7.29
436.623	7.19
436.829	7.1
437.036	6.91
437.242	6.92
437.449	6.89
437.655	7.04
437.862	7.11
438.068	7.13
438.275	7.09
438.481	7.1
438.687	7.07
438.894	7.16
439.1	7.2
439.307	7.22
439.513	7.27
439.719	7.33
439.926	7.14
440.132	7.28
440.338	7.37
440.544	7.23
440.751	7.09
440.957	7.22
441.163	6.94
441.369	6.86
441.575	7
441.782	7.16
441.988	7.13
442.194	7.23
442.4	7.21
442.606	7.07
442.812	7.03
443.018	7.01
443.224	6.92
443.431	6.89
443.637	6.99
443.843	6.86
444.049	6.9
444.255	6.95
444.461	6.86
444.667	6.76
444.873	6.75
445.079	6.78
445.284	6.79
445.49	6.9
445.696	6.97
445.902	7.04
446.108	7.11
446.314	7.06
446.52	7.03
446.726	7.06
446.931	7.09
447.137	7.05
447.343	7.01
447.549	7.01
447.755	6.99
447.96	6.98
448.166	6.98
448.372	7.04
448.578	7.08
448.783	7.08
448.989	7.09
449.195	7.03
449.4	7.06
449.606	6.98
449.812	6.98
450.017	6.98
450.223	6.92
450.428	6.82
450.634	6.88
450.84	6.8
451.045	6.78
451.251	6.9
451.456	6.99
451.662	6.93
451.867	7
452.073	6.92
452.278	6.92
452.483	6.87
452.689	6.84
452.894	6.78
453.1	6.79
453.305	6.77
453.51	6.84
453.716	6.88
453.921	7.05
454.127	7.08
454.332	7.11
454.537	7.12
454.742	6.99
454.948	6.83
455.153	6.8
455.358	6.74
455.563	6.68
455.769	6.86
455.974	6.86
456.179	6.85
456.384	6.74
456.589	6.81
456.795	6.69
457	6.76
457.205	6.72
457.41	6.75
457.615	6.62
457.82	6.64
458.025	6.54
458.23	6.64
458.435	6.73
458.64	6.65
458.845	6.69
459.05	6.61
459.255	6.67
459.46	6.62
459.665	6.7
459.87	6.73
460.075	6.92
460.28	6.8
460.485	6.85
460.69	6.85
460.895	7
461.099	7.01
461.304	7.08
461.509	6.99
461.714	7
461.919	6.87
462.123	6.8
462.328	6.77
462.533	6.8
462.738	6.81
462.942	6.72
463.147	6.75
463.352	6.79
463.556	6.9
463.761	6.94
463.966	6.91
464.17	6.94
464.375	6.87
464.58	6.83
464.784	6.76
464.989	6.9
465.193	6.88
465.398	6.88
465.602	6.8
465.807	6.77
466.011	6.72
466.216	6.76
466.42	6.78
466.625	6.82
466.829	6.86
467.034	6.87
467.238	6.83
467.443	6.86
467.647	6.87
467.851	6.9
468.056	6.88
468.26	6.86
468.464	6.89
468.669	6.85
468.873	6.88
469.077	6.85
469.282	6.8
