Data from Ofav_PP_Phys_366_Reflection_3.txt Node
Date: Tue Jul 27 19:04:37 EDT 2021
User: USUARIO
Spectrometer: FLMT01687
Trigger mode: 0
Integration Time (sec): 8.500000E-1
Scans to average: 2
Electric dark correction enabled: true
Nonlinearity correction enabled: false
Boxcar width: 2
XAxis mode: Wavelengths
Number of Pixels in Spectrum: 3648
>>>>>Begin Spectral Data<<<<<
179.494	-1125.93
179.716	-387.63
179.937	-254.21
180.158	-236.31
180.38	-250.77
180.601	-306.52
180.823	62.31
181.044	73.81
181.265	114.32
181.486	237.59
181.708	-14.63
181.929	63.43
182.15	38.67
182.372	200.35
182.593	165.17
182.814	86.01
183.035	87.02
183.257	79.17
183.478	62.92
183.699	49.03
183.92	65.13
184.141	46.86
184.363	62.26
184.584	72.59
184.805	91.67
185.026	67.93
185.247	84.5
185.468	69.29
185.689	63.45
185.91	49.4
186.132	13.97
186.353	24.14
186.574	30.38
186.795	31.46
187.016	38.56
187.237	43.63
187.458	27.75
187.679	25.39
187.9	25.13
188.121	8.95
188.342	30.61
188.563	54.54
188.784	67.7
189.005	68.75
189.226	81.42
189.447	72.76
189.667	67.38
189.888	65.54
190.109	63.21
190.33	53.97
190.551	53.17
190.772	47.85
190.993	42.52
191.214	47.93
191.434	37.39
191.655	40.37
191.876	38.09
192.097	26.13
192.318	35.18
192.538	67.14
192.759	79.07
192.98	72.26
193.201	56.61
193.421	54.08
193.642	28.55
193.863	13.69
194.083	26.08
194.304	45.62
194.525	28.63
194.745	-2.26
194.966	-17.58
195.187	-39.44
195.407	-27.27
195.628	-15.52
195.848	44.22
196.069	64.21
196.29	98.22
196.51	120.93
196.731	102.71
196.951	71.66
197.172	41.63
197.392	42.64
197.613	22.63
197.833	35.19
198.054	48.32
198.274	51.13
198.495	47.59
198.715	27.72
198.936	9.16
199.156	24.74
199.377	46.42
199.597	23.69
199.817	43.88
200.038	38.43
200.258	47.94
200.479	12.63
200.699	23.62
200.919	-1
201.14	16.6
201.36	-0.5
201.58	41.16
201.801	31.65
202.021	50.45
202.241	41.81
202.461	44.47
202.682	-2.24
202.902	-7.62
203.122	25.67
203.342	14.68
203.563	39.84
203.783	52.28
204.003	54.8
204.223	45.79
204.443	53.41
204.663	26.1
204.884	-2.82
205.104	-4.84
205.324	8.03
205.544	30.87
205.764	39.37
205.984	51.9
206.204	85.92
206.424	80.4
206.644	62.69
206.864	62.15
207.084	58.82
207.304	43.8
207.525	39.53
207.745	38.41
207.964	60.5
208.184	67.55
208.404	80.13
208.624	74.68
208.844	73.83
209.064	71.1
209.284	50.48
209.504	44.6
209.724	43.09
209.944	32.03
210.164	-2.89
210.384	86.75
210.604	43.13
210.823	48.02
211.043	44.51
211.263	39.63
211.483	32.83
211.703	56.64
211.922	59.66
212.142	69.29
212.362	53.94
212.582	69.26
212.801	43.9
213.021	44.56
213.241	3.85
213.461	-14.92
213.68	6.17
213.9	-7.79
214.12	-12.41
214.339	33.84
214.559	38.41
214.779	19.96
214.998	19.17
215.218	17.28
215.438	19.16
215.657	31.57
215.877	28.83
216.096	32.58
216.316	54.46
216.535	45.27
216.755	31.87
216.974	41.12
217.194	57.13
217.413	49.19
217.633	55.61
217.852	55.6
218.072	48.24
218.291	42.66
218.511	23.96
218.73	24.2
218.95	18.02
219.169	25.79
219.389	26.76
219.608	46.89
219.827	60.55
220.047	79.04
220.266	76.72
220.485	72.22
220.705	64.45
220.924	52.62
221.143	35.51
221.363	23.37
221.582	19.55
221.801	20.63
222.021	37.91
222.24	55.42
222.459	50.96
222.678	46.71
222.897	42.24
223.117	42.04
223.336	22.96
223.555	30.72
223.774	36.06
223.993	47.89
224.213	55.62
224.432	63.09
224.651	58.17
224.87	44.04
225.089	45.89
225.308	24.7
225.527	32.69
225.746	20.55
225.965	38.21
226.184	23.63
226.404	40.21
226.623	23.89
226.842	36.39
227.061	25.91
227.28	36.05
227.499	39.03
227.718	44.31
227.936	34.01
228.155	42.12
228.374	41.85
228.593	39.35
228.812	44.15
229.031	57.05
229.25	54.63
229.469	39.79
229.688	44.99
229.907	0.51
230.125	16.42
230.344	42.24
230.563	73.35
230.782	72.33
231.001	82.91
231.22	74.17
231.438	56.96
231.657	35.02
231.876	36.09
232.095	38.16
232.313	47.51
232.532	48.37
232.751	42.68
232.969	35.33
233.188	33.18
233.407	19.66
233.625	35.99
233.844	30.42
234.063	38.24
234.281	66.77
234.5	60.24
234.719	65.68
234.937	68.83
235.156	63.09
235.374	37.4
235.593	54.72
235.811	46.51
236.03	52.91
236.249	47
236.467	49.37
236.686	38.14
236.904	33.74
237.123	39.04
237.341	36.77
237.559	38
237.778	37.19
237.996	45.63
238.215	38.28
238.433	40.73
238.652	34.87
238.87	32.78
239.088	0.86
239.307	10.17
239.525	5.14
239.743	12.57
239.962	14.15
240.18	33.16
240.398	20.48
240.617	23.13
240.835	37.13
241.053	59.56
241.271	54.23
241.49	70.35
241.708	87.46
241.926	79.21
242.144	33.31
242.363	39.35
242.581	36.22
242.799	14.53
243.017	-10.29
243.235	23.01
243.453	14.69
243.672	30.9
243.89	39.16
244.108	66.7
244.326	58.3
244.544	53.45
244.762	43.53
244.98	49.92
245.198	28.55
245.416	30.32
245.634	59.09
245.852	91.27
246.07	85.11
246.288	84.03
246.506	87.56
246.724	73.53
246.942	49.01
247.16	41
247.378	39.63
247.596	32.18
247.814	30.51
248.032	30.31
248.25	28.22
248.468	38.21
248.685	38.5
248.903	36.35
249.121	53.63
249.339	66.7
249.557	70.95
249.775	54.49
249.992	42.41
250.21	34.05
250.428	40.1
250.646	14.73
250.863	35.21
251.081	52.38
251.299	55.34
251.517	36.16
251.734	57.26
251.952	43.01
252.17	63.49
252.387	57.38
252.605	67.98
252.823	46.65
253.04	51.34
253.258	49.35
253.475	48.31
253.693	51.3
253.911	70.33
254.128	62.45
254.346	57.93
254.563	46.16
254.781	29.07
254.998	22.42
255.216	4.49
255.433	3.19
255.651	26.05
255.868	44.09
256.086	37.56
256.303	43.25
256.521	38.39
256.738	40.54
256.956	24.87
257.173	20.43
257.39	15.96
257.608	24.91
257.825	24.2
258.043	40
258.26	53.13
258.477	55.21
258.695	49.43
258.912	49.04
259.129	46.24
259.346	27.49
259.564	47.92
259.781	51.38
259.998	29.92
260.216	44.03
260.433	51.35
260.65	59.66
260.867	50.15
261.084	57.41
261.302	27.86
261.519	31.47
261.736	7.47
261.953	19.88
262.17	39.05
262.387	44.22
262.604	49.65
262.822	66.14
263.039	67.62
263.256	57.14
263.473	71.23
263.69	78.83
263.907	52.59
264.124	46.27
264.341	57.58
264.558	61.44
264.775	60.65
264.992	79.02
265.209	76.06
265.426	77.13
265.643	68.17
265.86	46.8
266.077	35.62
266.294	42.36
266.51	44.38
266.727	47.1
266.944	52.88
267.161	56.84
267.378	37.82
267.595	36.21
267.812	34.64
268.028	56.53
268.245	58.44
268.462	58.54
268.679	51.58
268.896	64.56
269.112	37.88
269.329	27.08
269.546	41.3
269.763	38.48
269.979	34.1
270.196	44.79
270.413	52.27
270.629	50.24
270.846	69.92
271.063	49.33
271.279	40.72
271.496	44
271.712	32
271.929	-2.61
272.146	-5.8
272.362	19.17
272.579	14.54
272.795	27.27
273.012	24.3
273.228	23.67
273.445	21.16
273.661	25.61
273.878	14.93
274.094	9.8
274.311	26.85
274.527	20.37
274.744	8.25
274.96	16.77
275.177	16.28
275.393	12.87
275.609	29
275.826	41.47
276.042	27.93
276.259	58.55
276.475	53.09
276.691	44.92
276.908	39.47
277.124	47.64
277.34	48.32
277.557	55.06
277.773	64.71
277.989	65.71
278.205	56.34
278.422	56.04
278.638	41.34
278.854	44.47
279.07	49.93
279.286	62.72
279.503	42.07
279.719	57.42
279.935	58.69
280.151	67.76
280.367	66.99
280.583	73.55
280.799	77.37
281.016	73.38
281.232	50.63
281.448	40.02
281.664	29.98
281.88	12.22
282.096	15.87
282.312	24.04
282.528	24.54
282.744	29.14
282.96	37.56
283.176	43.97
283.392	64.43
283.608	76.1
283.824	55.12
284.04	40.59
284.256	39.42
284.471	28.43
284.687	36.33
284.903	44.01
285.119	59.52
285.335	59.07
285.551	60.12
285.767	59.3
285.982	63.18
286.198	61.68
286.414	44.22
286.63	29.43
286.846	21.4
287.061	15.98
287.277	8.29
287.493	8.05
287.709	19.5
287.924	21.23
288.14	42.68
288.356	55.38
288.571	62.66
288.787	58.76
289.003	42.42
289.218	31.84
289.434	33.76
289.65	25.42
289.865	10.96
290.081	22.65
290.296	20.81
290.512	4.48
290.727	15.23
290.943	26.39
291.159	33.06
291.374	37.93
291.59	37.91
291.805	40.27
292.021	43.75
292.236	45.82
292.451	41.78
292.667	55.35
292.882	49.3
293.098	46.67
293.313	54.78
293.529	60.2
293.744	51.13
293.959	50.68
294.175	46.85
294.39	35.79
294.605	34.46
294.821	35.61
295.036	31.36
295.251	23.32
295.467	26.83
295.682	1.8
295.897	8.45
296.112	27.74
296.328	51.35
296.543	61.85
296.758	64.59
296.973	55
297.188	52.68
297.404	39.51
297.619	36.21
297.834	29.52
298.049	37.65
298.264	39.56
298.479	40.59
298.694	34.74
298.909	30.24
299.125	35.64
299.34	32.35
299.555	45.92
299.77	51.07
299.985	55.57
300.2	40.29
300.415	37.22
300.63	23.59
300.845	5.67
301.06	15.83
301.275	42.69
301.49	33.95
301.704	32.92
301.919	43
302.134	42.69
302.349	37.23
302.564	49.16
302.779	48.54
302.994	50.08
303.209	54.57
303.423	47.92
303.638	21.35
303.853	32.72
304.068	47.63
304.283	51.3
304.497	58.1
304.712	64.51
304.927	56.75
305.142	52.04
305.356	24.54
305.571	31.32
305.786	31
306	35.92
306.215	25.78
306.43	38.05
306.644	31.31
306.859	27.74
307.074	38.1
307.288	39.24
307.503	39.4
307.717	37.59
307.932	50.14
308.147	55.82
308.361	50.95
308.576	51.13
308.79	48.03
309.005	35.6
309.219	19.87
309.434	25.71
309.648	28.26
309.863	27.44
310.077	15.59
310.292	18.6
310.506	7.98
310.72	-4.63
310.935	5.56
311.149	28.1
311.364	20.4
311.578	41.56
311.792	47.6
312.007	42.07
312.221	39.84
312.435	43.81
312.649	41.03
312.864	44.84
313.078	35.06
313.292	20.35
313.507	26.08
313.721	44.76
313.935	35.4
314.149	41.06
314.363	41.52
314.578	40.17
314.792	26.72
315.006	42.09
315.22	47.76
315.434	48.17
315.648	42.44
315.862	47.01
316.077	37.63
316.291	19.05
316.505	25.26
316.719	40.44
316.933	44.21
317.147	31.49
317.361	48.8
317.575	53.63
317.789	51.6
318.003	51.7
318.217	62.65
318.431	45.89
318.645	42.36
318.859	38.65
319.073	36.86
319.287	42.34
319.5	51.9
319.714	57.54
319.928	55.69
320.142	48.52
320.356	36.11
320.57	35.9
320.784	34.06
320.997	42.37
321.211	51.02
321.425	46.65
321.639	43.65
321.853	38.67
322.066	30.4
322.28	20.91
322.494	15.23
322.707	15.18
322.921	20.43
323.135	15.33
323.349	20.43
323.562	27.51
323.776	16.55
323.989	-6.65
324.203	-4.2
324.417	-31.39
324.63	-12.26
324.844	3.16
325.057	10.69
325.271	-1.9
325.485	23.95
325.698	24.44
325.912	27.93
326.125	38.64
326.339	49.18
326.552	54.16
326.766	49.21
326.979	50.77
327.193	38.28
327.406	34.25
327.619	21.87
327.833	16.24
328.046	19.19
328.26	21.16
328.473	-0.35
328.686	7.77
328.9	11.07
329.113	12.44
329.326	4.14
329.54	34.34
329.753	35.26
329.966	43.91
330.179	20.42
330.393	28.4
330.606	12.92
330.819	25.45
331.032	29.32
331.246	44.4
331.459	51.52
331.672	62.17
331.885	63.16
332.098	60.01
332.311	55.72
332.525	52.38
332.738	38.2
332.951	39.08
333.164	35.18
333.377	22.18
333.59	17.05
333.803	29.76
334.016	20.67
334.229	26.23
334.442	41.22
334.655	61.33
334.868	54.9
335.081	61.33
335.294	68.91
335.507	75.82
335.72	63.91
335.933	51.16
336.146	52.74
336.359	25.14
336.572	27.87
336.785	13.35
336.997	40.67
337.21	47.85
337.423	55.64
337.636	51.39
337.849	60.4
338.062	52.96
338.274	50.73
338.487	57.93
338.7	43.3
338.913	49.12
339.125	46.11
339.338	40.74
339.551	36.72
339.763	53.78
339.976	40.24
340.189	20.29
340.402	9.92
340.614	8.33
340.827	9.96
341.039	-2.67
341.252	13.03
341.465	8.67
341.677	24.25
341.89	38.18
342.102	54.1
342.315	57.71
342.527	61.89
342.74	58.56
342.952	39.91
343.165	38.93
343.377	30.18
343.59	20.99
343.802	18.52
344.015	36.68
344.227	32.97
344.44	17.13
344.652	18.79
344.864	3.06
345.077	-15.95
345.289	-10.26
345.502	4.63
345.714	14.57
345.926	8.44
346.139	22.07
346.351	18.5
346.563	12.49
346.775	7.5
346.988	22.52
347.2	10.12
347.412	23.58
347.624	39.28
347.837	40.34
348.049	29.37
348.261	33.82
348.473	16.69
348.685	14.4
348.897	11.09
349.11	29.33
349.322	36.41
349.534	45.23
349.746	56.44
349.958	58.85
350.17	48.61
350.382	38.21
350.594	23.26
350.806	26.39
351.018	38.67
351.23	38.09
351.442	51.68
351.654	81.09
351.866	62.48
352.078	55.55
352.29	38.31
352.502	27.9
352.714	29.28
352.926	39.48
353.138	43.56
353.35	48.53
353.561	48.67
353.773	39.83
353.985	26.22
354.197	25.71
354.409	29.17
354.621	37.19
354.832	42.47
355.044	30.65
355.256	30.04
355.468	32.31
355.679	30.18
355.891	27.54
356.103	43.84
356.314	30.52
356.526	37.38
356.738	42.51
356.949	34.03
357.161	27.51
357.373	29.59
357.584	20.32
357.796	22.48
358.008	34.27
358.219	35.25
358.431	45.85
358.642	41.33
358.854	39.62
359.065	33.39
359.277	41.42
359.488	48.05
359.7	64.73
359.911	63.21
360.123	57.51
360.334	51.59
360.546	36.62
360.757	35.44
360.969	40.67
361.18	49.77
361.391	43.34
361.603	43.69
361.814	36.86
362.025	41.46
362.237	45.19
362.448	44.83
362.659	45.69
362.871	42.76
363.082	30.63
363.293	32.33
363.504	29.35
363.716	24.98
363.927	3.77
364.138	5.43
364.349	-0.35
364.56	12.48
364.772	14.38
364.983	31.99
365.194	50.75
365.405	46
365.616	32.41
365.827	37.19
366.038	42.02
366.25	24.7
366.461	31.63
366.672	38.8
366.883	34.33
367.094	32.24
367.305	42.86
367.516	38.21
367.727	38.92
367.938	44.43
368.149	46.63
368.36	36.75
368.571	26.22
368.781	26.48
368.992	24.16
369.203	11.62
369.414	15.49
369.625	21.06
369.836	9.61
370.047	19.11
370.258	29.24
370.468	30.37
370.679	20.6
370.89	25.5
371.101	3.71
371.312	-1.32
371.522	-14.61
371.733	-3.41
371.944	4.74
372.155	21.65
372.365	15.21
372.576	22.96
372.787	22.37
372.997	27.74
373.208	22.54
373.419	31.73
373.629	27.25
373.84	24.99
374.05	12.43
374.261	3.94
374.472	5.32
374.682	9.65
374.893	18.55
375.103	23.97
375.314	36.99
375.524	46.45
375.735	43.2
375.945	35.55
376.156	33.44
376.366	31.19
376.577	19.55
376.787	26.99
376.997	32.74
377.208	34.83
377.418	36.08
377.629	51.59
377.839	50.3
378.049	48.52
378.26	50.37
378.47	43.63
378.68	32.96
378.89	34.93
379.101	27.33
379.311	19.7
379.521	26.84
379.732	23.39
379.942	31.76
380.152	31.81
380.362	47.97
380.572	34.52
380.783	34.27
380.993	23.94
381.203	22.99
381.413	9.06
381.623	14.46
381.833	11.85
382.043	13.91
382.253	18.46
382.463	20.82
382.674	31.97
382.884	26.36
383.094	19.76
383.304	25.5
383.514	31.13
383.724	24.16
383.934	25.95
384.144	23.11
384.353	16.78
384.563	16.8
384.773	13.16
384.983	17.75
385.193	18.62
385.403	15.41
385.613	9.64
385.823	11.5
386.033	10.88
386.242	20.54
386.452	23.12
386.662	31.03
386.872	32.87
387.082	28
387.291	16.62
387.501	16.07
387.711	9.38
387.921	10.6
388.13	14.13
388.34	18.65
388.55	19.25
388.759	16.45
388.969	14.13
389.179	16.23
389.388	17.48
389.598	20.09
389.807	19.87
390.017	17.17
390.227	15.78
390.436	17.07
390.646	12.89
390.855	13.56
391.065	13.49
391.274	12.71
391.484	9.01
391.693	10.39
391.903	9.76
392.112	11.43
392.322	10.81
392.531	11.91
392.74	11.12
392.95	11.62
393.159	12.93
393.369	13.27
393.578	13.79
393.787	14.52
393.997	15.33
394.206	14.75
394.415	14.03
394.625	12.45
394.834	11.71
395.043	11.29
395.252	10.8
395.462	11.64
395.671	11.99
395.88	13.12
396.089	13.44
396.298	12.98
396.508	12.33
396.717	12.8
396.926	11.92
397.135	11.34
397.344	11.31
397.553	11.72
397.762	11.47
397.971	11.25
398.181	11.57
398.39	11.83
398.599	11.66
398.808	11.97
399.017	12.2
399.226	11.8
399.435	11.8
399.644	12.11
399.853	11.95
400.062	12.19
400.27	12.14
400.479	11.84
400.688	11.7
400.897	11.53
401.106	11.57
401.315	12.09
401.524	12.21
401.733	12.11
401.941	12.24
402.15	12.12
402.359	11.86
402.568	11.99
402.777	12.04
402.985	11.91
403.194	11.89
403.403	11.81
403.612	11.61
403.82	11.43
404.029	11.43
404.238	11.35
404.446	11.21
404.655	11.31
404.864	11.3
405.072	11.24
405.281	11.16
405.489	11.12
405.698	11.06
405.906	11.04
406.115	11.04
406.324	10.9
406.532	10.89
406.741	10.92
406.949	10.98
407.158	10.8
407.366	10.8
407.574	10.82
407.783	10.63
407.991	10.49
408.2	10.65
408.408	10.8
408.617	10.77
408.825	10.85
409.033	10.79
409.242	10.67
409.45	10.47
409.658	10.44
409.867	10.3
410.075	10.33
410.283	10.31
410.491	10.38
410.7	10.25
410.908	10.33
411.116	10.29
411.324	10.2
411.533	10.17
411.741	10.12
411.949	10
412.157	10.03
412.365	10.22
412.573	10.07
412.781	10.12
412.99	10.19
413.198	10.31
413.406	10.24
413.614	10.43
413.822	10.45
414.03	10.33
414.238	10.17
414.446	10.18
414.654	10
414.862	10.02
415.07	10
415.278	10
415.486	9.88
415.694	9.82
415.902	9.71
416.109	9.77
416.317	9.77
416.525	9.68
416.733	9.69
416.941	9.78
417.149	9.62
417.357	9.64
417.564	9.53
417.772	9.59
417.98	9.55
418.188	9.81
418.395	9.59
418.603	9.75
418.811	9.84
419.019	9.69
419.226	9.57
419.434	9.87
419.642	9.86
419.849	9.74
420.057	9.78
420.265	9.8
420.472	9.46
420.68	9.37
420.887	9.49
421.095	9.37
421.302	9.36
421.51	9.32
421.717	9.28
421.925	8.94
422.132	9.11
422.34	9.01
422.547	9.2
422.755	9.33
422.962	9.41
423.17	9.48
423.377	9.49
423.585	9.54
423.792	9.33
423.999	9.35
424.207	9.11
424.414	9.09
424.621	8.95
424.829	8.89
425.036	8.91
425.243	9
425.451	8.82
425.658	8.85
425.865	8.97
426.072	8.82
426.28	8.76
426.487	9.03
426.694	8.87
426.901	8.84
427.108	8.97
427.315	8.89
427.523	8.66
427.73	8.56
427.937	8.51
428.144	8.61
428.351	8.63
428.558	8.88
428.765	9.09
428.972	9.17
429.179	8.98
429.386	9.05
429.593	8.88
429.8	8.84
430.007	8.87
430.214	8.97
430.421	8.89
430.628	8.81
430.835	8.75
431.042	8.74
431.249	8.73
431.456	8.94
431.662	9.04
431.869	9.06
432.076	9.01
432.283	9.02
432.49	8.83
432.697	8.79
432.903	8.83
433.11	9.01
433.317	8.94
433.524	8.95
433.73	8.96
433.937	8.78
434.144	8.66
434.35	8.7
434.557	8.81
434.764	8.72
434.97	8.8
435.177	8.9
435.384	8.85
435.59	8.89
435.797	8.98
436.003	9.1
436.21	8.89
436.416	8.91
436.623	8.7
436.829	8.61
437.036	8.63
437.242	8.71
437.449	8.63
437.655	8.82
437.862	8.96
438.068	8.9
438.275	8.92
438.481	8.9
438.687	8.83
438.894	8.79
439.1	8.73
439.307	8.67
439.513	8.79
439.719	8.75
439.926	8.67
440.132	8.87
440.338	8.86
440.544	8.82
440.751	8.73
440.957	8.77
441.163	8.48
441.369	8.52
441.575	8.45
441.782	8.64
441.988	8.57
442.194	8.77
442.4	8.76
442.606	8.85
442.812	8.8
443.018	8.81
443.224	8.73
443.431	8.58
443.637	8.64
443.843	8.53
444.049	8.52
444.255	8.41
444.461	8.43
444.667	8.31
444.873	8.34
445.079	8.47
445.284	8.56
445.49	8.58
445.696	8.62
445.902	8.57
446.108	8.53
446.314	8.56
446.52	8.62
446.726	8.59
446.931	8.63
447.137	8.58
447.343	8.49
447.549	8.5
447.755	8.51
447.96	8.49
448.166	8.45
448.372	8.52
448.578	8.6
448.783	8.62
448.989	8.68
449.195	8.76
449.4	8.84
449.606	8.74
449.812	8.78
450.017	8.74
450.223	8.7
450.428	8.58
450.634	8.66
450.84	8.59
451.045	8.58
451.251	8.62
451.456	8.71
451.662	8.54
451.867	8.6
452.073	8.56
452.278	8.5
452.483	8.36
452.689	8.48
452.894	8.48
453.1	8.55
453.305	8.53
453.51	8.62
453.716	8.54
453.921	8.59
454.127	8.51
454.332	8.46
454.537	8.49
454.742	8.5
454.948	8.35
455.153	8.4
455.358	8.56
455.563	8.5
455.769	8.46
455.974	8.46
456.179	8.43
456.384	8.23
456.589	8.32
456.795	8.41
457	8.39
457.205	8.37
457.41	8.45
457.615	8.39
457.82	8.3
458.025	8.35
458.23	8.42
458.435	8.37
458.64	8.3
458.845	8.32
459.05	8.31
459.255	8.26
459.46	8.31
459.665	8.39
459.87	8.4
460.075	8.49
460.28	8.47
460.485	8.54
460.69	8.42
460.895	8.5
461.099	8.44
461.304	8.36
461.509	8.26
461.714	8.38
461.919	8.31
462.123	8.36
462.328	8.46
462.533	8.46
462.738	8.44
462.942	8.41
463.147	8.42
463.352	8.34
463.556	8.43
463.761	8.39
463.966	8.41
464.17	8.35
464.375	8.43
464.58	8.35
464.784	8.3
464.989	8.33
465.193	8.31
465.398	8.34
465.602	8.49
465.807	8.47
466.011	8.53
466.216	8.49
466.42	8.48
466.625	8.4
466.829	8.41
