Data from Ofav_PP_Phys_366_Reflection_1.txt Node
Date: Tue Jul 27 19:04:12 EDT 2021
User: USUARIO
Spectrometer: FLMT01687
Trigger mode: 0
Integration Time (sec): 8.500000E-1
Scans to average: 2
Electric dark correction enabled: true
Nonlinearity correction enabled: false
Boxcar width: 2
XAxis mode: Wavelengths
Number of Pixels in Spectrum: 3648
>>>>>Begin Spectral Data<<<<<
179.494	-1031.11
179.716	-321.77
179.937	-218.39
180.158	-176.73
180.38	-142.01
180.601	-126.69
180.823	73.27
181.044	50.54
181.265	57.05
181.486	-55.97
181.708	-37.27
181.929	78.52
182.15	51.12
182.372	-6.22
182.593	-38.38
182.814	36.33
183.035	55.89
183.257	28.87
183.478	52.04
183.699	47.32
183.92	57.84
184.141	62.77
184.363	89.31
184.584	97.79
184.805	98.22
185.026	82.4
185.247	91.16
185.468	57.5
185.689	23.85
185.91	13.41
186.132	-6.55
186.353	-2.79
186.574	10.62
186.795	27.36
187.016	37.94
187.237	52.3
187.458	72.11
187.679	56.76
187.9	42.74
188.121	50.63
188.342	53.01
188.563	51.97
188.784	80.64
189.005	94.04
189.226	76.05
189.447	63.89
189.667	64.57
189.888	59.89
190.109	43.48
190.33	68.59
190.551	68.91
190.772	37.71
190.993	30.11
191.214	45.83
191.434	36.44
191.655	51.84
191.876	61.98
192.097	44.77
192.318	46.21
192.538	48.65
192.759	38.44
192.98	22.62
193.201	44.1
193.421	27.66
193.642	23.49
193.863	20.94
194.083	50.63
194.304	48.19
194.525	29.63
194.745	1.62
194.966	-15.6
195.187	-53.22
195.407	-41.52
195.628	-13.56
195.848	21.84
196.069	34.5
196.29	54.66
196.51	70.91
196.731	84.38
196.951	89.25
197.172	82.78
197.392	64.33
197.613	58.56
197.833	23.75
198.054	42.79
198.274	49.19
198.495	52.75
198.715	75.44
198.936	85.96
199.156	71.34
199.377	94.1
199.597	114.55
199.817	60.7
200.038	113.73
200.258	72.51
200.479	46.61
200.699	41.52
200.919	45.03
201.14	40.16
201.36	26.22
201.58	20.72
201.801	11.49
202.021	8.9
202.241	6.56
202.461	4.59
202.682	-17.78
202.902	-52.57
203.122	-21.96
203.342	-13.6
203.563	39.9
203.783	52.97
204.003	67.08
204.223	57.42
204.443	54.84
204.663	11.57
204.884	19.02
205.104	16.53
205.324	9.06
205.544	3.87
205.764	2.51
205.984	-2.44
206.204	-9.48
206.424	-17.52
206.644	32.98
206.864	38.33
207.084	29.04
207.304	15.03
207.525	22.27
207.745	14.28
207.964	14.99
208.184	25.43
208.404	38.3
208.624	34.35
208.844	46.72
209.064	48.5
209.284	40.24
209.504	42.3
209.724	47.89
209.944	-13.12
210.164	12.48
210.384	60.61
210.604	52.55
210.823	66.62
211.043	63.57
211.263	73.49
211.483	74.54
211.703	75.76
211.922	81.18
212.142	135.79
212.362	54.03
212.582	34.22
212.801	39.46
213.021	20.51
213.241	5.51
213.461	20.8
213.68	27.53
213.9	16.33
214.12	34.83
214.339	34.36
214.559	33.57
214.779	20.03
214.998	23.6
215.218	5.26
215.438	15.38
215.657	30.78
215.877	46.41
216.096	49.74
216.316	64.68
216.535	50.8
216.755	51.06
216.974	61.77
217.194	71.27
217.413	73.19
217.633	80.65
217.852	65.54
218.072	46.45
218.291	34.22
218.511	13.49
218.73	19.43
218.95	18.96
219.169	28.38
219.389	17.61
219.608	38.83
219.827	36.16
220.047	30.91
220.266	58.98
220.485	77.23
220.705	65.46
220.924	48.59
221.143	35.88
221.363	10.23
221.582	-13.9
221.801	-17.35
222.021	16.42
222.24	31.01
222.459	31.06
222.678	49.34
222.897	55.68
223.117	62.83
223.336	84.14
223.555	59.34
223.774	41.2
223.993	50.18
224.213	27.85
224.432	14.31
224.651	35.9
224.87	30.34
225.089	11.88
225.308	14.95
225.527	27.42
225.746	-5.89
225.965	12.24
226.184	15.16
226.404	19.39
226.623	-5.03
226.842	19.03
227.061	3.56
227.28	21.75
227.499	31.54
227.718	28.41
227.936	40.31
228.155	40.4
228.374	35.71
228.593	31.17
228.812	35.45
229.031	18.02
229.25	24.26
229.469	13.05
229.688	26.42
229.907	11.72
230.125	37.3
230.344	26.98
230.563	51.79
230.782	52.29
231.001	65.8
231.22	63.14
231.438	62.7
231.657	43.2
231.876	19.52
232.095	20.31
232.313	21.2
232.532	27.91
232.751	25.89
232.969	54.07
233.188	57.2
233.407	49.87
233.625	55.67
233.844	43.9
234.063	23.14
234.281	13.28
234.5	10.33
234.719	19.12
234.937	29.04
235.156	35.34
235.374	27.7
235.593	44.81
235.811	29.23
236.03	38.46
236.249	51.73
236.467	75.23
236.686	57.89
236.904	67.27
237.123	60.01
237.341	55.71
237.559	50.13
237.778	52.77
237.996	45.2
238.215	57.27
238.433	59.46
238.652	55.34
238.87	66.39
239.088	67.13
239.307	54.47
239.525	37.27
239.743	30.25
239.962	15.76
240.18	22.09
240.398	17.99
240.617	23.36
240.835	39.91
241.053	44.77
241.271	42.62
241.49	46.15
241.708	59.68
241.926	39.3
242.144	24.11
242.363	18.37
242.581	28.03
242.799	2.47
243.017	-1.42
243.235	4.8
243.453	25.52
243.672	24.99
243.89	39.42
244.108	43.24
244.326	39.26
244.544	14.58
244.762	26.76
244.98	30.22
245.198	21.85
245.416	26.11
245.634	49.87
245.852	37.78
246.07	24.98
246.288	34.3
246.506	36.48
246.724	46.15
246.942	39.36
247.16	49.76
247.378	43.68
247.596	36.23
247.814	25.18
248.032	27.87
248.25	19.92
248.468	33.94
248.685	39.85
248.903	49.48
249.121	51.68
249.339	47.82
249.557	45.15
249.775	19.92
249.992	2.81
250.21	-0.94
250.428	-0.68
250.646	-20.75
250.863	10.43
251.081	25.69
251.299	22.26
251.517	29.54
251.734	66.4
251.952	54.46
252.17	53.91
252.387	41.74
252.605	54.73
252.823	35.98
253.04	39.92
253.258	42.74
253.475	45.95
253.693	42.44
253.911	41.68
254.128	35.07
254.346	22.91
254.563	28.24
254.781	22.9
254.998	28.8
255.216	16.17
255.433	16.49
255.651	32.69
255.868	24.05
256.086	12.01
256.303	21.49
256.521	26.76
256.738	26.01
256.956	34.02
257.173	39.51
257.39	41.74
257.608	54.71
257.825	43.4
258.043	45.07
258.26	43.55
258.477	39.15
258.695	28.49
258.912	27.59
259.129	12.02
259.346	18.51
259.564	28.31
259.781	52.95
259.998	48.95
260.216	61.76
260.433	56.25
260.65	69.98
260.867	57.28
261.084	74.71
261.302	73.91
261.519	86.34
261.736	50.81
261.953	52.13
262.17	40.71
262.387	30.51
262.604	17.79
262.822	15.91
263.039	12.86
263.256	12.45
263.473	29.56
263.69	29.64
263.907	28.5
264.124	45.14
264.341	50.37
264.558	48.45
264.775	55.71
264.992	61.97
265.209	55.48
265.426	53.87
265.643	53.22
265.86	36.4
266.077	33.75
266.294	28.11
266.51	38.42
266.727	35.36
266.944	32.48
267.161	24.15
267.378	20.91
267.595	4.51
267.812	15.88
268.028	34.72
268.245	25.63
268.462	24.49
268.679	14.85
268.896	17.92
269.112	14.61
269.329	23.9
269.546	39.68
269.763	40.18
269.979	34.83
270.196	32.11
270.413	31.95
270.629	31.79
270.846	46.05
271.063	36.96
271.279	31.21
271.496	30.79
271.712	13.18
271.929	4.81
272.146	0.3
272.362	32.83
272.579	41.43
272.795	47.34
273.012	39.96
273.228	40.82
273.445	27.79
273.661	31.33
273.878	17.35
274.094	4.13
274.311	20.42
274.527	27.96
274.744	10.72
274.96	6.8
275.177	18.08
275.393	12.74
275.609	13.33
275.826	24.28
276.042	40.16
276.259	61.96
276.475	49.09
276.691	29.11
276.908	38.27
277.124	35.99
277.34	34.19
277.557	44.84
277.773	68.62
277.989	55.88
278.205	49.01
278.422	41.75
278.638	42.7
278.854	51.13
279.07	53.78
279.286	55.37
279.503	53.41
279.719	49.25
279.935	41.5
280.151	44
280.367	52.57
280.583	56.64
280.799	71
281.016	68.31
281.232	71.5
281.448	62.22
281.664	55.86
281.88	34.41
282.096	38.99
282.312	23.39
282.528	18.14
282.744	17.35
282.96	17.72
283.176	3.69
283.392	12.55
283.608	34.48
283.824	32.62
284.04	11.3
284.256	28.46
284.471	22.64
284.687	17.41
284.903	21.87
285.119	32.8
285.335	33.48
285.551	36.66
285.767	44.18
285.982	42.34
286.198	53.28
286.414	40.54
286.63	39.03
286.846	26.22
287.061	14.98
287.277	7.03
287.493	8.1
287.709	11.98
287.924	21.89
288.14	35.76
288.356	52.74
288.571	57.94
288.787	58.12
289.003	45.37
289.218	55.51
289.434	51.88
289.65	48.99
289.865	32.34
290.081	43.29
290.296	32.34
290.512	31.24
290.727	28.03
290.943	34.49
291.159	19.19
291.374	30.69
291.59	29.41
291.805	32.97
292.021	25.94
292.236	38.48
292.451	38.81
292.667	47.28
292.882	39.86
293.098	43.38
293.313	51.01
293.529	45.44
293.744	36.04
293.959	48.02
294.175	53.19
294.39	45
294.605	43.88
294.821	46.9
295.036	33.21
295.251	34.66
295.467	19.68
295.682	-9.18
295.897	-3.74
296.112	14.99
296.328	14
296.543	26.38
296.758	48.34
296.973	51.8
297.188	51.26
297.404	45.55
297.619	43.65
297.834	37.21
298.049	37.57
298.264	34.69
298.479	38.04
298.694	32.86
298.909	32.91
299.125	41
299.34	37.16
299.555	52.54
299.77	53.5
299.985	60.45
300.2	42.27
300.415	34.09
300.63	13.67
300.845	14.52
301.06	-2.15
301.275	27.69
301.49	35.92
301.704	33.19
301.919	37.99
302.134	42.43
302.349	38.87
302.564	33.85
302.779	24.42
302.994	19.88
303.209	23.83
303.423	19.34
303.638	19.68
303.853	34.42
304.068	51.03
304.283	46.04
304.497	34.23
304.712	44.18
304.927	30.94
305.142	25.2
305.356	30.74
305.571	56.24
305.786	62.33
306	66.64
306.215	54.9
306.43	52.42
306.644	55.61
306.859	45.52
307.074	56.95
307.288	58.44
307.503	66.3
307.717	52.72
307.932	45.26
308.147	48.58
308.361	43.58
308.576	28.65
308.79	23.88
309.005	30.28
309.219	16.66
309.434	22.36
309.648	28.63
309.863	31.94
310.077	30.43
310.292	26.56
310.506	18.08
310.72	11.61
310.935	3
311.149	-3.35
311.364	-6.83
311.578	12.04
311.792	25.28
312.007	31.13
312.221	37.5
312.435	36.43
312.649	38.68
312.864	38.97
313.078	46.48
313.292	39.45
313.507	24.6
313.721	33.92
313.935	23.68
314.149	20.88
314.363	23.03
314.578	28.1
314.792	20.07
315.006	32.37
315.22	39.84
315.434	42.71
315.648	54.54
315.862	50.95
316.077	52.7
316.291	46.19
316.505	19.76
316.719	21.96
316.933	26.42
317.147	8.21
317.361	15.14
317.575	45.12
317.789	34.76
318.003	38.67
318.217	36.73
318.431	24.35
318.645	22.08
318.859	28.12
319.073	28.38
319.287	29.97
319.5	26.97
319.714	18.59
319.928	22.74
320.142	12.42
320.356	21.04
320.57	37.77
320.784	41.92
320.997	48
321.211	62.95
321.425	53.17
321.639	37.65
321.853	30
322.066	25.51
322.28	14.95
322.494	25.62
322.707	31.84
322.921	35.11
323.135	30.73
323.349	28.33
323.562	34.5
323.776	37.17
323.989	26.12
324.203	21.05
324.417	12.17
324.63	31.75
324.844	35.3
325.057	44.21
325.271	41.43
325.485	48.18
325.698	33.37
325.912	42.59
326.125	47.83
326.339	47.47
326.552	44.28
326.766	39.7
326.979	20.48
327.193	21.59
327.406	12.99
327.619	14.15
327.833	11.85
328.046	32.29
328.26	19.19
328.473	20.08
328.686	27.13
328.9	26.49
329.113	20.2
329.326	14.08
329.54	26.4
329.753	34.55
329.966	28.63
330.179	29.14
330.393	44.02
330.606	34.63
330.819	24.99
331.032	30.81
331.246	33.23
331.459	28.68
331.672	32.66
331.885	38.35
332.098	54.15
332.311	60.03
332.525	64.06
332.738	45.89
332.951	41.66
333.164	20.53
333.377	-1.1
333.59	12.32
333.803	27.48
334.016	20.02
334.229	26.42
334.442	40.3
334.655	40.71
334.868	47.44
335.081	54.15
335.294	52.91
335.507	60.37
335.72	59.63
335.933	45.3
336.146	44.43
336.359	52.04
336.572	48.39
336.785	34.53
336.997	36.24
337.21	54.59
337.423	57.8
337.636	47.3
337.849	39.32
338.062	45.48
338.274	28.69
338.487	38.53
338.7	41.85
338.913	52.17
339.125	42.8
339.338	44.67
339.551	-6.19
339.763	-19.67
339.976	-11.29
340.189	8.2
340.402	9.21
340.614	35.15
340.827	47.17
341.039	45.73
341.252	39.42
341.465	12.36
341.677	15.7
341.89	14.38
342.102	22.57
342.315	25.85
342.527	53.24
342.74	52.81
342.952	33.5
343.165	38.85
343.377	37.06
343.59	22.89
343.802	27.9
344.015	41.95
344.227	31.27
344.44	24.53
344.652	22.99
344.864	6.93
345.077	15.73
345.289	7.74
345.502	14.3
345.714	12.56
345.926	12.44
346.139	20.16
346.351	30.85
346.563	29.4
346.775	38.73
346.988	41.98
347.2	24.13
347.412	11.13
347.624	16.94
347.837	-5.86
348.049	-10.69
348.261	0.15
348.473	14.97
348.685	24.47
348.897	37.03
349.11	41.68
349.322	29.14
349.534	23.82
349.746	12.72
349.958	21.28
350.17	21.46
350.382	27.4
350.594	15.98
350.806	25.78
351.018	18.05
351.23	16.52
351.442	16.88
351.654	47.89
351.866	25.11
352.078	32.97
352.29	35.09
352.502	33.47
352.714	30.5
352.926	40.67
353.138	41.31
353.35	36.22
353.561	39.29
353.773	24.7
353.985	15.11
354.197	20.9
354.409	23.68
354.621	24.55
354.832	34.26
355.044	35.76
355.256	35.67
355.468	42.97
355.679	46.27
355.891	49.49
356.103	66.32
356.314	58.66
356.526	53.48
356.738	63.22
356.949	49.77
357.161	42.62
357.373	35
357.584	35.2
357.796	30.6
358.008	32.24
358.219	36.01
358.431	47.38
358.642	44.79
358.854	48.42
359.065	41.48
359.277	35.91
359.488	31.24
359.7	30.56
359.911	32.84
360.123	46.78
360.334	41.21
360.546	44.68
360.757	55.99
360.969	46.36
361.18	45.15
361.391	41.83
361.603	36.55
361.814	30.74
362.025	33.92
362.237	27.17
362.448	23.14
362.659	25.51
362.871	22.36
363.082	17.59
363.293	16.51
363.504	24.78
363.716	22.28
363.927	4.49
364.138	15.8
364.349	20.41
364.56	21.44
364.772	28.85
364.983	39.76
365.194	27.86
365.405	29.75
365.616	34.42
365.827	35.84
366.038	43.06
366.25	55.79
366.461	55.37
366.672	55.67
366.883	51.56
367.094	39.59
367.305	33.76
367.516	29.19
367.727	31.77
367.938	25.47
368.149	34.41
368.36	23.56
368.571	24.28
368.781	25.48
368.992	28.7
369.203	14.15
369.414	27.4
369.625	37.34
369.836	26.39
370.047	23.36
370.258	33.97
370.468	23.05
370.679	16.91
370.89	23.98
371.101	13.87
371.312	23.45
371.522	25.72
371.733	28.18
371.944	31.16
372.155	39.15
372.365	19.28
372.576	20.06
372.787	17.39
372.997	18.52
373.208	20.18
373.419	35.17
373.629	34.59
373.84	40.03
374.05	31.35
374.261	23.26
374.472	25.55
374.682	26.1
374.893	30.2
375.103	34.92
375.314	40.22
375.524	30.23
375.735	30.3
375.945	17.4
376.156	22.98
376.366	20.9
376.577	25.97
376.787	20.95
376.997	30.38
377.208	31.4
377.418	33.71
377.629	36.5
377.839	52.23
378.049	42.42
378.26	36.93
378.47	38.03
378.68	32.33
378.89	25.98
379.101	15.7
379.311	16.43
379.521	12.36
379.732	19.05
379.942	27
380.152	37.03
380.362	44.79
380.572	37.94
380.783	31.57
380.993	20.02
381.203	14.28
381.413	1.9
381.623	10.24
381.833	11.79
382.043	19.81
382.253	22.13
382.463	22.13
382.674	25.15
382.884	25.78
383.094	13.35
383.304	21.61
383.514	25.53
383.724	15.26
383.934	15.47
384.144	15.4
384.353	11.94
384.563	20.72
384.773	25.35
384.983	19.55
385.193	24.23
385.403	23.44
385.613	16.15
385.823	15.73
386.033	15.91
386.242	20.06
386.452	19.67
386.662	21.72
386.872	22.14
387.082	18.18
387.291	10.71
387.501	7.8
387.711	6.66
387.921	6.6
388.13	13.95
388.34	16.11
388.55	21.42
388.759	19.11
388.969	19.88
389.179	20.33
389.388	22.73
389.598	17.66
389.807	17.18
390.017	18.42
390.227	17.52
390.436	17.26
390.646	18.93
390.855	17.04
391.065	15.14
391.274	12.78
391.484	9.77
391.693	11.44
391.903	13.1
392.112	12.26
392.322	12.56
392.531	12.51
392.74	10.56
392.95	11.05
393.159	11.92
393.369	12.39
393.578	14.03
393.787	13.09
393.997	12.17
394.206	11.65
394.415	11.48
394.625	10.33
394.834	10.81
395.043	11.17
395.252	11.54
395.462	11.64
395.671	11.17
395.88	12.51
396.089	12.62
396.298	12.1
396.508	11.64
396.717	12.23
396.926	11.05
397.135	10.25
397.344	10.04
397.553	9.97
397.762	9.51
397.971	9.53
398.181	10.09
398.39	10.11
398.599	9.97
398.808	10.05
399.017	10.65
399.226	10.45
399.435	10.56
399.644	10.7
399.853	10.78
400.062	10.53
400.27	10.32
400.479	9.89
400.688	9.75
400.897	9.61
401.106	9.39
401.315	9.63
401.524	9.71
401.733	9.82
401.941	9.81
402.15	9.94
402.359	9.75
402.568	9.79
402.777	9.52
402.985	9.44
403.194	9.45
403.403	9.42
403.612	9.26
403.82	9.24
404.029	9.23
404.238	9.04
404.446	9.15
404.655	9.44
404.864	9.62
405.072	9.58
405.281	9.72
405.489	9.49
405.698	9.39
405.906	9.38
406.115	9.29
406.324	9.1
406.532	9.02
406.741	8.85
406.949	8.76
407.158	8.7
407.366	8.59
407.574	8.8
407.783	8.81
407.991	8.78
408.2	8.84
408.408	8.9
408.617	8.74
408.825	8.85
409.033	8.83
409.242	8.83
409.45	8.79
409.658	8.77
409.867	8.52
410.075	8.33
410.283	8.2
410.491	8.14
410.7	8.14
410.908	8.2
411.116	8.33
411.324	8.42
411.533	8.4
411.741	8.15
411.949	8.19
412.157	8.21
412.365	8.32
412.573	8.25
412.781	8.43
412.99	8.36
413.198	8.38
413.406	8.3
413.614	8.44
413.822	8.42
414.03	8.49
414.238	8.35
414.446	8.23
414.654	8.17
414.862	8.21
415.07	8.05
415.278	7.96
415.486	7.97
415.694	7.9
415.902	7.77
416.109	7.84
416.317	8.07
416.525	8.04
416.733	8.03
416.941	8.09
417.149	7.95
417.357	7.91
417.564	7.8
417.772	7.81
417.98	7.9
418.188	8.31
418.395	8.1
418.603	8.08
418.811	8.31
419.019	8.1
419.226	7.88
419.434	8.07
419.642	8.32
419.849	8.09
420.057	8.07
420.265	8.1
420.472	7.87
420.68	7.75
420.887	7.77
421.095	7.85
421.302	7.74
421.51	7.89
421.717	7.79
421.925	7.67
422.132	7.66
422.34	7.64
422.547	7.62
422.755	7.69
422.962	7.6
423.17	7.68
423.377	7.72
423.585	7.77
423.792	7.69
423.999	7.69
424.207	7.58
424.414	7.57
424.621	7.4
424.829	7.29
425.036	7.34
425.243	7.45
425.451	7.26
425.658	7.23
425.865	7.44
426.072	7.39
426.28	7.13
426.487	7.3
426.694	7.36
426.901	7.27
427.108	7.33
427.315	7.39
427.523	7.23
427.73	7.05
427.937	7.05
428.144	7.16
428.351	7.08
428.558	7.29
428.765	7.46
428.972	7.47
429.179	7.31
429.386	7.45
429.593	7.26
429.8	7.18
430.007	7.12
430.214	7.1
430.421	7.11
430.628	7.02
430.835	7.12
431.042	7.07
431.249	7.25
431.456	7.19
431.662	7.51
431.869	7.56
432.076	7.53
432.283	7.4
432.49	7.47
432.697	7.28
432.903	7.36
433.11	7.57
433.317	7.55
433.524	7.48
433.73	7.56
433.937	7.3
434.144	7.15
434.35	7.2
434.557	7.2
434.764	7.13
434.97	7.18
435.177	7.2
435.384	7.06
435.59	7.1
435.797	7.12
436.003	7.23
436.21	7.14
436.416	7.26
436.623	7.25
436.829	7.21
437.036	7.21
437.242	7.36
437.449	7.33
437.655	7.34
437.862	7.34
438.068	7.22
438.275	7.2
438.481	7.13
438.687	7.18
438.894	7.28
439.1	7.4
439.307	7.33
439.513	7.41
439.719	7.44
439.926	7.25
440.132	7.3
440.338	7.34
440.544	7.34
440.751	7.2
440.957	7.31
441.163	7.08
441.369	7.1
441.575	7.02
441.782	7.14
441.988	7.09
442.194	7.17
442.4	7.15
442.606	7.1
442.812	7.12
443.018	7.06
443.224	7.12
443.431	7.06
443.637	7.17
443.843	6.99
444.049	7.17
444.255	7.05
444.461	7.11
444.667	7.02
444.873	7.09
445.079	7.13
445.284	7.2
445.49	7.21
445.696	7.3
445.902	7.33
446.108	7.26
446.314	7.22
446.52	7.31
446.726	7.28
446.931	7.35
447.137	7.26
447.343	7.22
447.549	7.04
447.755	7.04
447.96	6.97
448.166	7.06
448.372	7.17
448.578	7.25
448.783	7.3
448.989	7.31
449.195	7.22
449.4	7.22
449.606	7.21
449.812	7.13
450.017	7.1
450.223	7.14
450.428	7.08
450.634	7.08
450.84	7.11
451.045	7.22
451.251	7.35
451.456	7.37
451.662	7.37
451.867	7.41
452.073	7.21
452.278	7.14
452.483	7.07
452.689	7.13
452.894	7.09
453.1	7.21
453.305	7.27
453.51	7.36
453.716	7.27
453.921	7.34
454.127	7.33
454.332	7.13
454.537	7.06
454.742	7.07
454.948	6.98
455.153	7.02
455.358	7.11
455.563	7.15
455.769	7.14
455.974	7.17
456.179	7.08
456.384	7.01
456.589	7.11
456.795	7.16
457	7.16
457.205	7.17
457.41	7.22
457.615	7.07
457.82	7.02
458.025	6.93
458.23	6.99
458.435	6.94
458.64	6.97
458.845	7
459.05	6.98
459.255	7
459.46	7.06
459.665	7.07
459.87	7.05
460.075	7.19
460.28	7.16
460.485	7.21
460.69	7.22
460.895	7.27
461.099	7.23
461.304	7.19
461.509	7.13
461.714	7.24
461.919	7.21
462.123	7.28
462.328	7.31
462.533	7.22
462.738	7.08
462.942	7.05
463.147	6.97
463.352	6.92
463.556	7.09
463.761	7.04
463.966	7.05
464.17	7.08
464.375	7.12
464.58	7.13
464.784	7.24
464.989	7.34
465.193	7.32
465.398	7.39
465.602	7.31
465.807	7.27
466.011	7.19
466.216	7.11
466.42	7.16
466.625	7.21
466.829	7.1
467.034	7.25
467.238	7.34
467.443	7.33
467.647	7.28
467.851	7.4
