Data from Ofav_PP_Phys_9GT46_Reflection_2.txt Node
Date: Tue Jul 27 19:03:36 EDT 2021
User: USUARIO
Spectrometer: FLMT01687
Trigger mode: 0
Integration Time (sec): 8.500000E-1
Scans to average: 2
Electric dark correction enabled: true
Nonlinearity correction enabled: false
Boxcar width: 2
XAxis mode: Wavelengths
Number of Pixels in Spectrum: 3648
>>>>>Begin Spectral Data<<<<<
179.494	-564.44
179.716	-192.74
179.937	-101.31
180.158	-108.94
180.38	-90.51
180.601	-81.85
180.823	50.47
181.044	51.26
181.265	1.66
181.486	-7.41
181.708	47.62
181.929	13.39
182.15	1.22
182.372	-133.68
182.593	27.72
182.814	81.24
183.035	74.47
183.257	46
183.478	36.65
183.699	26.32
183.92	22.79
184.141	27.32
184.363	52.54
184.584	63.92
184.805	70.91
185.026	54.78
185.247	29.86
185.468	20.65
185.689	12.9
185.91	-18.65
186.132	-26.33
186.353	5.68
186.574	-16.12
186.795	-1.97
187.016	17.93
187.237	22.47
187.458	13.28
187.679	24.86
187.9	-9.75
188.121	3.19
188.342	0.14
188.563	31.68
188.784	54.3
189.005	83.93
189.226	69.26
189.447	69.47
189.667	68
189.888	78.59
190.109	67.73
190.33	80.63
190.551	54.22
190.772	52.58
190.993	18.44
191.214	25.76
191.434	21.91
191.655	38.91
191.876	25.98
192.097	29.45
192.318	37.28
192.538	58.21
192.759	55.23
192.98	55.35
193.201	63.18
193.421	64.96
193.642	29.58
193.863	25.11
194.083	20.33
194.304	1.34
194.525	-12.85
194.745	-43.2
194.966	-64.81
195.187	-57.11
195.407	-33.09
195.628	13.79
195.848	50.79
196.069	39.71
196.29	62.36
196.51	124.39
196.731	67.53
196.951	49.96
197.172	34.08
197.392	36.96
197.613	20.54
197.833	36.57
198.054	41.52
198.274	51.54
198.495	40.05
198.715	35.37
198.936	-6.39
199.156	40
199.377	35.76
199.597	39.51
199.817	30.86
200.038	81.62
200.258	44.87
200.479	67.56
200.699	70.26
200.919	55.03
201.14	54.27
201.36	36.65
201.58	17.81
201.801	-14.62
202.021	10.35
202.241	7.7
202.461	1.22
202.682	-10.64
202.902	5.71
203.122	17.66
203.342	30.89
203.563	52.52
203.783	72.12
204.003	58.74
204.223	46.55
204.443	24.36
204.663	4.82
204.884	-9.81
205.104	8.39
205.324	6.08
205.544	13.54
205.764	9.38
205.984	3.22
206.204	-11.69
206.424	-6.9
206.644	31.14
206.864	48.67
207.084	50.98
207.304	58.28
207.525	70.35
207.745	66.14
207.964	51.87
208.184	63.97
208.404	59.75
208.624	39.01
208.844	55.37
209.064	69.69
209.284	70.66
209.504	66.8
209.724	109.2
209.944	75.56
210.164	69.2
210.384	63.81
210.604	66.67
210.823	14.09
211.043	32.68
211.263	14.96
211.483	25.51
211.703	9.74
211.922	-8.17
212.142	1.17
212.362	15.35
212.582	-48.43
212.801	-13.19
213.021	-10.77
213.241	-43.41
213.461	-69.82
213.68	4.51
213.9	-17.77
214.12	3.88
214.339	27.96
214.559	36.87
214.779	29.22
214.998	20.72
215.218	8.48
215.438	27
215.657	41.01
215.877	19.88
216.096	48.87
216.316	63.34
216.535	49.61
216.755	49.21
216.974	61.3
217.194	44.07
217.413	42.02
217.633	35.76
217.852	32.2
218.072	16.74
218.291	12.86
218.511	6.19
218.73	25.57
218.95	15.68
219.169	46.18
219.389	26.93
219.608	46.38
219.827	43.99
220.047	20.55
220.266	22.69
220.485	39.04
220.705	32.33
220.924	30.67
221.143	32.28
221.363	18.43
221.582	8.69
221.801	3.65
222.021	12.83
222.24	29.2
222.459	13.97
222.678	33.92
222.897	27.84
223.117	24.93
223.336	6.08
223.555	21.42
223.774	18.14
223.993	35.97
224.213	36.27
224.432	47.32
224.651	58.65
224.87	39.7
225.089	22.1
225.308	15.03
225.527	15.59
225.746	-11.89
225.965	10.57
226.184	11.85
226.404	4.63
226.623	3.71
226.842	15.52
227.061	15.19
227.28	18.57
227.499	13.74
227.718	10.08
227.936	15.27
228.155	21.01
228.374	26.78
228.593	38.15
228.812	31.96
229.031	28.85
229.25	17.29
229.469	-11.94
229.688	-19.38
229.907	-22.05
230.125	2.27
230.344	18.67
230.563	43.96
230.782	45.83
231.001	49.76
231.22	40.06
231.438	23.12
231.657	3.27
231.876	-15.27
232.095	-3.31
232.313	13.1
232.532	11.8
232.751	22.78
232.969	35.66
233.188	47.4
233.407	32.79
233.625	41.64
233.844	41.45
234.063	47.16
234.281	34.69
234.5	21.12
234.719	47.49
234.937	41.62
235.156	32.47
235.374	22.67
235.593	38.19
235.811	17.24
236.03	16.05
236.249	22.28
236.467	32.92
236.686	20.11
236.904	15.32
237.123	22.01
237.341	23.79
237.559	18.87
237.778	25.86
237.996	22.05
238.215	23.98
238.433	19.44
238.652	19.63
238.87	25.62
239.088	34.58
239.307	37.81
239.525	38.21
239.743	23.07
239.962	20.53
240.18	23.42
240.398	23.84
240.617	26.19
240.835	44.72
241.053	51.62
241.271	36.02
241.49	38.38
241.708	36.16
241.926	19.65
242.144	9.92
242.363	32.7
242.581	27.23
242.799	13.68
243.017	10.8
243.235	12.75
243.453	-6.04
243.672	13.13
243.89	17.22
244.108	18.11
244.326	11.18
244.544	19.78
244.762	6.48
244.98	10.89
245.198	8.6
245.416	8.67
245.634	-6.02
245.852	1.47
246.07	20.11
246.288	33.47
246.506	41.75
246.724	46.24
246.942	36.01
247.16	42.75
247.378	34.37
247.596	28.57
247.814	31.4
248.032	28.93
248.25	14.5
248.468	27
248.685	32.92
248.903	46.02
249.121	42.33
249.339	23.59
249.557	26.85
249.775	4.93
249.992	-5.37
250.21	-5.24
250.428	-5.21
250.646	-20.66
250.863	6.92
251.081	11.33
251.299	29.01
251.517	49.28
251.734	80.11
251.952	56.18
252.17	39.8
252.387	16.08
252.605	23.68
252.823	3.18
253.04	28.37
253.258	35.42
253.475	25.24
253.693	23.15
253.911	37.67
254.128	29.06
254.346	33.45
254.563	43.11
254.781	46.22
254.998	43.38
255.216	42.41
255.433	29.41
255.651	53.83
255.868	47.63
256.086	29.58
256.303	13.92
256.521	34.16
256.738	21.59
256.956	18.97
257.173	34.34
257.39	45.24
257.608	41.07
257.825	43.73
258.043	46.84
258.26	41.56
258.477	39.58
258.695	33.13
258.912	30.48
259.129	21.98
259.346	16.76
259.564	12.68
259.781	28.46
259.998	17.85
260.216	25.08
260.433	24.63
260.65	46.49
260.867	34.53
261.084	45.89
261.302	48.82
261.519	43.98
261.736	20.48
261.953	25.37
262.17	17.94
262.387	21.04
262.604	18.44
262.822	19.59
263.039	26.67
263.256	28.27
263.473	41.83
263.69	47.11
263.907	17.24
264.124	-16.05
264.341	8.36
264.558	4.27
264.775	12.31
264.992	40.26
265.209	45.42
265.426	40.73
265.643	41.29
265.86	34.99
266.077	29.81
266.294	42
266.51	45.25
266.727	40.21
266.944	36.47
267.161	26.26
267.378	-3.87
267.595	10.33
267.812	19.08
268.028	39.04
268.245	49.01
268.462	51.72
268.679	16.62
268.896	15.54
269.112	-8.63
269.329	1.86
269.546	24.99
269.763	23.13
269.979	20.01
270.196	16.3
270.413	27.22
270.629	29.66
270.846	39.25
271.063	42.12
271.279	63.09
271.496	56.19
271.712	37.89
271.929	25.68
272.146	-11.55
272.362	12.86
272.579	2.77
272.795	8.3
273.012	24.99
273.228	32.4
273.445	20.09
273.661	23.8
273.878	22.91
274.094	13.75
274.311	23.58
274.527	24.26
274.744	15.48
274.96	15.55
275.177	6.52
275.393	-7.56
275.609	-7.87
275.826	-6.54
276.042	-7.54
276.259	-2.32
276.475	0.89
276.691	-1.46
276.908	5.48
277.124	19.38
277.34	37.37
277.557	39.87
277.773	49.1
277.989	39.29
278.205	30.46
278.422	16.97
278.638	16.68
278.854	24.99
279.07	23.46
279.286	21.17
279.503	20.22
279.719	36.32
279.935	39.84
280.151	46.38
280.367	46.04
280.583	50.8
280.799	43.7
281.016	32.13
281.232	36.17
281.448	44.1
281.664	34.31
281.88	26.72
282.096	19.68
282.312	7
282.528	-10.38
282.744	-22.52
282.96	-4.48
283.176	4.61
283.392	9.8
283.608	23.18
283.824	31.4
284.04	2.12
284.256	14.92
284.471	11.75
284.687	16.71
284.903	25.73
285.119	44.02
285.335	35.69
285.551	36.25
285.767	33.4
285.982	19.72
286.198	20.67
286.414	7.57
286.63	12.45
286.846	5.01
287.061	7.29
287.277	-4.32
287.493	-9.46
287.709	-12.22
287.924	-11.25
288.14	-4.27
288.356	21.56
288.571	53.72
288.787	44.7
289.003	30.62
289.218	36.42
289.434	27.08
289.65	2.24
289.865	1.93
290.081	25.18
290.296	22.19
290.512	26.63
290.727	22.02
290.943	36.16
291.159	56.45
291.374	53.9
291.59	58.72
291.805	55.33
292.021	51.35
292.236	39.4
292.451	29.55
292.667	17.16
292.882	25.57
293.098	14.75
293.313	16.3
293.529	34.08
293.744	30.9
293.959	35.59
294.175	45.36
294.39	31.51
294.605	25.76
294.821	24.61
295.036	5.32
295.251	-10.95
295.467	-7.11
295.682	-32.82
295.897	-24.42
296.112	5.32
296.328	21.39
296.543	42.88
296.758	47.09
296.973	52.95
297.188	48.89
297.404	31.19
297.619	30.49
297.834	30.5
298.049	31.26
298.264	28.93
298.479	42.29
298.694	23.31
298.909	14.2
299.125	10.95
299.34	5.75
299.555	8.84
299.77	23.3
299.985	33.95
300.2	33.89
300.415	30.27
300.63	24.85
300.845	20.54
301.06	30.41
301.275	26.45
301.49	37.72
301.704	17.68
301.919	13.42
302.134	7.79
302.349	9.92
302.564	6.95
302.779	6.07
302.994	3.34
303.209	-7.29
303.423	-12.61
303.638	-20.28
303.853	-7.26
304.068	2.59
304.283	9.97
304.497	19.98
304.712	28.94
304.927	26.42
305.142	36.79
305.356	16.78
305.571	32.2
305.786	10.32
306	31.41
306.215	17.76
306.43	43.48
306.644	36.52
306.859	47.15
307.074	39.43
307.288	41.73
307.503	37.97
307.717	35.17
307.932	30.28
308.147	35.77
308.361	43.91
308.576	37.52
308.79	29.07
309.005	15.87
309.219	11.51
309.434	-3.81
309.648	-8.08
309.863	-1.19
310.077	19.55
310.292	11.43
310.506	9.35
310.72	19.09
310.935	-8.16
311.149	-17.1
311.364	-0.14
311.578	12.15
311.792	11.48
312.007	24.19
312.221	36.91
312.435	29.98
312.649	30.51
312.864	30.58
313.078	35.46
313.292	2.45
313.507	17.17
313.721	32.81
313.935	25.79
314.149	24.72
314.363	30.41
314.578	32.26
314.792	28.15
315.006	24.58
315.22	26.15
315.434	16.46
315.648	3.17
315.862	-7.2
316.077	1.03
316.291	-0.9
316.505	13.91
316.719	26.1
316.933	38.29
317.147	26.54
317.361	37.42
317.575	34.94
317.789	24.52
318.003	15.53
318.217	28.32
318.431	31.29
318.645	29.12
318.859	38.04
319.073	33.17
319.287	19.33
319.5	4.22
319.714	13.81
319.928	10.5
320.142	14.19
320.356	43.65
320.57	56.37
320.784	48.95
320.997	49.23
321.211	50.6
321.425	41.07
321.639	22.85
321.853	19.84
322.066	22.56
322.28	-1.13
322.494	-0.57
322.707	6.85
322.921	9.23
323.135	5.7
323.349	20.31
323.562	15.91
323.776	16.53
323.989	2.18
324.203	-4.89
324.417	-13.47
324.63	17.5
324.844	14.68
325.057	23.37
325.271	49.97
325.485	60.44
325.698	43.98
325.912	46.33
326.125	40.28
326.339	30.35
326.552	22.14
326.766	16.88
326.979	20.54
327.193	24.38
327.406	24.01
327.619	12.36
327.833	16.51
328.046	16.36
328.26	12.43
328.473	-6.57
328.686	9.8
328.9	12.37
329.113	9.33
329.326	-1.52
329.54	26.28
329.753	1.99
329.966	-6.23
330.179	-13.23
330.393	21.1
330.606	8.17
330.819	29.73
331.032	9.76
331.246	29.41
331.459	10.82
331.672	21.14
331.885	11.31
332.098	41.39
332.311	24.17
332.525	28.65
332.738	15.36
332.951	23.31
333.164	2.78
333.377	5.12
333.59	12.09
333.803	21.7
334.016	10.42
334.229	19.95
334.442	32.47
334.655	31.31
334.868	33.64
335.081	49.74
335.294	52.43
335.507	44.78
335.72	44.24
335.933	36.03
336.146	12.73
336.359	13.42
336.572	13.41
336.785	13.95
336.997	14.29
337.21	15.22
337.423	7.73
337.636	-0.69
337.849	2.51
338.062	9.23
338.274	29.82
338.487	31.4
338.7	27.92
338.913	24.31
339.125	21.32
339.338	-10.03
339.551	-21.94
339.763	-22.55
339.976	-17.82
340.189	-15.21
340.402	-7.32
340.614	-5.08
340.827	6.3
341.039	-11.19
341.252	-18.58
341.465	-25.47
341.677	-27.53
341.89	-33.97
342.102	11.45
342.315	28.42
342.527	26.01
342.74	33.76
342.952	22.27
343.165	17.15
343.377	11.98
343.59	10.95
343.802	16.7
344.015	24.76
344.227	23.63
344.44	4.04
344.652	18.03
344.864	5.03
345.077	20.55
345.289	12.46
345.502	29.77
345.714	31.21
345.926	17.78
346.139	14.49
346.351	20.87
346.563	8.5
346.775	1.32
346.988	6.49
347.2	4.68
347.412	22.35
347.624	30.02
347.837	24.69
348.049	27.54
348.261	23.21
348.473	13.43
348.685	19.83
348.897	20.16
349.11	26.11
349.322	23.36
349.534	20.13
349.746	9.16
349.958	18.06
350.17	15.66
350.382	13.5
350.594	7.75
350.806	20.21
351.018	17.35
351.23	14.56
351.442	26.98
351.654	41.71
351.866	22.87
352.078	35.32
352.29	30.33
352.502	27.41
352.714	16.62
352.926	30.72
353.138	22.96
353.35	19.87
353.561	7.78
353.773	8.09
353.985	-6.96
354.197	2.03
354.409	8.54
354.621	15.04
354.832	23.53
355.044	20.24
355.256	20.07
355.468	24.11
355.679	19.06
355.891	25.42
356.103	46.04
356.314	47.85
356.526	47.33
356.738	67.28
356.949	49.55
357.161	45.85
357.373	38.44
357.584	31.81
357.796	30.11
358.008	38.91
358.219	33.18
358.431	37.15
358.642	39.54
358.854	38.84
359.065	27.26
359.277	26.64
359.488	25.9
359.7	29.95
359.911	23.58
360.123	32.8
360.334	26.28
360.546	25.99
360.757	28.77
360.969	35.81
361.18	33.87
361.391	37.08
361.603	27.96
361.814	26.93
362.025	31.42
362.237	30.27
362.448	31.64
362.659	24.41
362.871	17.97
363.082	1.65
363.293	-3.83
363.504	-24.37
363.716	-14.97
363.927	-23.87
364.138	-12.98
364.349	-0.07
364.56	6.72
364.772	11.07
364.983	9.07
365.194	11.55
365.405	3.33
365.616	3.35
365.827	13.28
366.038	12.68
366.25	14.2
366.461	16.09
366.672	19.34
366.883	21.03
367.094	27.34
367.305	18.5
367.516	26.39
367.727	36.64
367.938	26.08
368.149	13.75
368.36	12.24
368.571	-5.04
368.781	-9.21
368.992	-12.31
369.203	-7.27
369.414	-5.82
369.625	-1.69
369.836	-12.31
370.047	-3.33
370.258	-1.76
370.468	-2.8
370.679	-12.62
370.89	-0.72
371.101	-15.18
371.312	-0.76
371.522	-6.65
371.733	13.79
371.944	15.52
372.155	27.45
372.365	21.01
372.576	25.78
372.787	27.9
372.997	29.91
373.208	22.63
373.419	22.94
373.629	30.59
373.84	24.97
374.05	16.56
374.261	20.05
374.472	24.79
374.682	21.2
374.893	26.47
375.103	29.15
375.314	34.51
375.524	38.68
375.735	26.63
375.945	22.15
376.156	20.25
376.366	21.67
376.577	17.68
376.787	11.6
376.997	6.48
377.208	8.45
377.418	5.29
377.629	3.23
377.839	27.06
378.049	35.9
378.26	38.56
378.47	43.95
378.68	44.74
378.89	25.6
379.101	12.81
379.311	4.11
379.521	-7.02
379.732	-12.16
379.942	2.2
380.152	2.11
380.362	10.02
380.572	3.11
380.783	6.49
380.993	-0.05
381.203	-3.64
381.413	-10.64
381.623	-10.11
381.833	-8.21
382.043	-1.66
382.253	5.89
382.463	8.16
382.674	21.29
382.884	11.23
383.094	6.3
383.304	6.27
383.514	10.03
383.724	-4.81
383.934	5.68
384.144	-1.06
384.353	-0.87
384.563	0.04
384.773	0.97
384.983	-10.5
385.193	-4.26
385.403	-2.91
385.613	-0.75
385.823	5.52
386.033	11.95
386.242	10.63
386.452	9.7
386.662	10.95
386.872	13.62
387.082	14.31
387.291	11.55
387.501	12.14
387.711	7.72
387.921	10.13
388.13	11.58
388.34	14.4
388.55	13.6
388.759	14.54
388.969	11.48
389.179	12.94
389.388	14.53
389.598	14.26
389.807	14.88
390.017	13.14
390.227	11.8
390.436	9.32
390.646	8.51
390.855	6.75
391.065	6.45
391.274	4.2
391.484	2.98
391.693	2.61
391.903	2.44
392.112	1.9
392.322	0.76
392.531	1.13
392.74	2.44
392.95	3.85
393.159	3.77
393.369	5.63
393.578	7.44
393.787	7.14
393.997	6.54
394.206	8.71
394.415	8.16
394.625	7.09
394.834	6.49
395.043	7.11
395.252	6.32
395.462	7.06
395.671	6.66
395.88	7.68
396.089	7.38
396.298	6.4
396.508	5.69
396.717	6.49
396.926	5.53
397.135	4.93
397.344	5.78
397.553	5.88
397.762	5.62
397.971	5.8
398.181	6.06
398.39	5.81
398.599	6.02
398.808	5.74
399.017	6.04
399.226	5.58
399.435	5.77
399.644	5.55
399.853	6.01
400.062	6.1
400.27	6.31
400.479	5.94
400.688	5.96
400.897	5.71
401.106	5.75
401.315	5.94
401.524	5.97
401.733	5.94
401.941	6.04
402.15	5.82
402.359	5.53
402.568	5.51
402.777	5.51
402.985	5.31
403.194	5.48
403.403	5.86
403.612	5.96
403.82	5.8
404.029	5.8
404.238	5.74
404.446	5.54
404.655	5.49
404.864	5.63
405.072	5.73
405.281	5.6
405.489	5.5
405.698	5.48
405.906	5.53
406.115	5.29
406.324	5.17
406.532	5.19
406.741	5.26
406.949	5.09
407.158	5.11
407.366	5.09
407.574	5.13
407.783	4.95
407.991	4.96
408.2	5.03
408.408	5.07
408.617	5.09
408.825	5.07
409.033	5.08
409.242	5
409.45	4.94
409.658	4.83
409.867	4.83
410.075	4.76
410.283	4.83
410.491	4.8
410.7	4.75
410.908	4.76
411.116	4.69
411.324	4.65
411.533	4.69
411.741	4.66
411.949	4.64
412.157	4.77
412.365	4.84
412.573	4.74
412.781	4.72
412.99	4.67
413.198	4.75
413.406	4.73
413.614	4.99
413.822	5.09
414.03	5.16
414.238	5.02
414.446	5.05
414.654	5.01
414.862	4.99
415.07	4.92
415.278	5.02
415.486	4.93
415.694	4.75
415.902	4.69
416.109	4.74
416.317	4.61
416.525	4.5
416.733	4.39
416.941	4.46
417.149	4.34
417.357	4.39
417.564	4.33
417.772	4.43
417.98	4.46
418.188	4.71
418.395	4.65
418.603	4.71
418.811	4.86
419.019	4.74
419.226	4.58
419.434	4.64
419.642	4.79
419.849	4.72
420.057	4.55
420.265	4.56
420.472	4.41
420.68	4.28
420.887	4.28
421.095	4.38
421.302	4.45
421.51	4.36
421.717	4.4
421.925	4.27
422.132	4.34
422.34	4.21
422.547	4.27
422.755	4.38
422.962	4.39
423.17	4.56
423.377	4.54
423.585	4.65
423.792	4.49
423.999	4.5
424.207	4.19
424.414	4.19
424.621	4.11
424.829	4.17
425.036	4.23
425.243	4.35
425.451	4.27
425.658	4.34
425.865	4.28
426.072	4.25
426.28	4.22
426.487	4.33
426.694	4.22
426.901	4.14
427.108	4.16
427.315	4.16
427.523	4.06
427.73	4
427.937	3.87
428.144	3.85
428.351	3.83
428.558	4.01
428.765	4.13
428.972	4.35
429.179	4.36
429.386	4.37
429.593	4.1
429.8	3.92
430.007	3.82
430.214	3.78
430.421	3.89
430.628	4.12
430.835	4.49
431.042	4.53
431.249	4.5
431.456	4.42
431.662	4.53
431.869	4.37
432.076	4.42
432.283	4.47
432.49	4.31
432.697	4.21
432.903	4.31
433.11	4.49
433.317	4.46
433.524	4.49
433.73	4.42
433.937	4.32
434.144	4.12
434.35	4.12
434.557	4.16
434.764	4.17
434.97	4.17
435.177	4.1
435.384	4.08
435.59	4.07
435.797	4.07
436.003	4.17
436.21	4.18
436.416	4.15
436.623	4.11
436.829	4.02
437.036	3.9
437.242	3.93
437.449	3.87
437.655	3.94
437.862	4.04
438.068	3.94
438.275	3.96
438.481	3.92
438.687	4.06
438.894	4.07
439.1	4.13
439.307	3.97
439.513	4.06
439.719	4.04
439.926	3.85
440.132	4
440.338	4.1
440.544	4.04
440.751	3.91
440.957	4.04
441.163	3.88
441.369	3.89
441.575	3.93
441.782	4.06
441.988	3.93
442.194	3.95
442.4	4.09
442.606	4.17
442.812	4.11
443.018	4.2
443.224	4.19
443.431	3.99
443.637	3.93
443.843	3.83
444.049	3.89
444.255	3.88
444.461	3.93
444.667	3.92
444.873	3.97
445.079	3.89
445.284	3.85
445.49	3.87
445.696	3.81
445.902	3.9
446.108	3.94
446.314	3.97
446.52	4
446.726	4.13
446.931	4.09
447.137	4.13
447.343	4.12
447.549	4
447.755	3.83
447.96	3.81
448.166	3.79
448.372	3.89
448.578	3.91
448.783	4.05
448.989	4.06
449.195	4.02
449.4	4.03
449.606	4.07
449.812	3.97
450.017	4.01
450.223	3.99
450.428	3.88
450.634	3.88
450.84	3.99
451.045	4.01
451.251	4.09
451.456	4.16
451.662	4.15
451.867	4.13
452.073	4.06
452.278	3.99
452.483	4.03
452.689	4.08
452.894	4.04
453.1	4.02
453.305	4.05
453.51	4.04
453.716	3.94
453.921	4.04
454.127	4.08
454.332	4.02
454.537	4.01
454.742	3.95
454.948	3.79
455.153	3.91
455.358	3.93
455.563	3.91
455.769	4.01
455.974	3.97
456.179	3.78
456.384	3.74
456.589	3.75
456.795	3.71
457	3.77
457.205	3.78
457.41	3.78
457.615	3.7
457.82	3.64
458.025	3.61
458.23	3.66
458.435	3.67
458.64	3.65
458.845	3.83
459.05	3.77
459.255	3.77
459.46	3.8
459.665	3.81
459.87	3.74
460.075	3.93
460.28	3.97
460.485	3.98
460.69	4.02
460.895	3.99
461.099	3.89
461.304	3.82
461.509	3.81
461.714	3.87
461.919	3.9
462.123	3.92
462.328	3.92
462.533	3.85
462.738	3.76
462.942	3.75
463.147	3.71
463.352	3.7
463.556	3.83
463.761	3.85
463.966	3.81
464.17	3.91
464.375	3.99
464.58	3.91
464.784	3.88
464.989	4.02
465.193	3.93
465.398	3.9
465.602	3.97
465.807	3.94
466.011	3.8
466.216	3.8
466.42	3.85
466.625	3.73
466.829	3.71
467.034	3.86
467.238	3.9
467.443	3.86
467.647	3.92
467.851	4.02
468.056	3.94
468.26	3.95
468.464	3.93
468.669	3.92
