Data from Ofav_PP_Phys_366_Reflection_2.txt Node
Date: Tue Jul 27 19:04:22 EDT 2021
User: USUARIO
Spectrometer: FLMT01687
Trigger mode: 0
Integration Time (sec): 8.500000E-1
Scans to average: 2
Electric dark correction enabled: true
Nonlinearity correction enabled: false
Boxcar width: 2
XAxis mode: Wavelengths
Number of Pixels in Spectrum: 3648
>>>>>Begin Spectral Data<<<<<
179.494	-779.26
179.716	-269.89
179.937	-189.39
180.158	-123.66
180.38	-146.7
180.601	-226.81
180.823	37.63
181.044	14.12
181.265	47.98
181.486	30.18
181.708	-19.6
181.929	40.34
182.15	21.64
182.372	-13.13
182.593	3.98
182.814	83.99
183.035	90.14
183.257	77.47
183.478	72.21
183.699	73.49
183.92	69.63
184.141	67.99
184.363	69.87
184.584	72.39
184.805	89.08
185.026	74.77
185.247	69.39
185.468	63.59
185.689	59.11
185.91	38.92
186.132	27.31
186.353	26
186.574	29.78
186.795	18.47
187.016	27.92
187.237	23.49
187.458	37.11
187.679	20.54
187.9	33.9
188.121	51.22
188.342	80.42
188.563	103.83
188.784	124.35
189.005	115.54
189.226	92.83
189.447	93.37
189.667	83.49
189.888	89.25
190.109	92.81
190.33	115.97
190.551	55.36
190.772	45.13
190.993	37
191.214	41.32
191.434	36.11
191.655	56.08
191.876	58.59
192.097	51.03
192.318	47.96
192.538	58.62
192.759	53.01
192.98	49.27
193.201	60.95
193.421	84.76
193.642	51.51
193.863	40.35
194.083	52.7
194.304	33.8
194.525	16.25
194.745	25.37
194.966	32.56
195.187	0.68
195.407	61.94
195.628	79.85
195.848	72.68
196.069	93.68
196.29	190.64
196.51	167.94
196.731	127.77
196.951	127.4
197.172	123.34
197.392	103.29
197.613	105.95
197.833	83.87
198.054	106.59
198.274	70.9
198.495	40.09
198.715	60.24
198.936	64.92
199.156	57.95
199.377	110.07
199.597	159.67
199.817	67.06
200.038	124.31
200.258	69.34
200.479	50.52
200.699	40.74
200.919	64.25
201.14	61.84
201.36	72.36
201.58	92.97
201.801	101.85
202.021	70.49
202.241	75.37
202.461	79.32
202.682	38.43
202.902	40.38
203.122	49.54
203.342	46.91
203.563	50.99
203.783	66.98
204.003	68.84
204.223	68.53
204.443	72.22
204.663	52.33
204.884	57.56
205.104	56.52
205.324	71
205.544	67.72
205.764	67.79
205.984	56.34
206.204	38.16
206.424	24.11
206.644	34.13
206.864	40.07
207.084	34.38
207.304	48.87
207.525	42.83
207.745	57.64
207.964	67.9
208.184	79.19
208.404	85.92
208.624	83.63
208.844	87.79
209.064	93.58
209.284	82.11
209.504	74.5
209.724	81.01
209.944	27.37
210.164	6.33
210.384	28.28
210.604	51.67
210.823	66.52
211.043	65.1
211.263	61.82
211.483	82.18
211.703	80.19
211.922	88.06
212.142	110.2
212.362	76.52
212.582	49.1
212.801	41.97
213.021	40.41
213.241	27.19
213.461	35.83
213.68	57.3
213.9	61.38
214.12	53.23
214.339	69.32
214.559	71.22
214.779	63.95
214.998	63.2
215.218	44.16
215.438	43.14
215.657	49.67
215.877	41.81
216.096	43.51
216.316	73.88
216.535	65.3
216.755	70.54
216.974	73.69
217.194	75.56
217.413	59.15
217.633	60.43
217.852	58.18
218.072	52.95
218.291	47.11
218.511	27.28
218.73	31.66
218.95	12.88
219.169	20.36
219.389	27.79
219.608	54.8
219.827	83.04
220.047	117.88
220.266	89.55
220.485	78.37
220.705	66.21
220.924	56.71
221.143	42.08
221.363	17.19
221.582	26.09
221.801	37.19
222.021	42.16
222.24	40.45
222.459	38.29
222.678	30.34
222.897	33.97
223.117	27.02
223.336	42.37
223.555	39.81
223.774	34.58
223.993	21.9
224.213	25.08
224.432	24.87
224.651	35.15
224.87	27.63
225.089	20.07
225.308	7.58
225.527	6.84
225.746	-4.49
225.965	11.5
226.184	30.25
226.404	36.76
226.623	52.17
226.842	59.82
227.061	62.58
227.28	75.87
227.499	78.32
227.718	82.01
227.936	87.2
228.155	69.1
228.374	70.53
228.593	71.1
228.812	67.73
229.031	60.99
229.25	56.98
229.469	25.03
229.688	13.97
229.907	-6.58
230.125	17.61
230.344	26.48
230.563	65.59
230.782	68.34
231.001	68.86
231.22	60.94
231.438	68.49
231.657	36.46
231.876	32.84
232.095	40.58
232.313	52.68
232.532	32.15
232.751	36.06
232.969	36.93
233.188	33.98
233.407	19.88
233.625	39.99
233.844	43.66
234.063	78.3
234.281	74.78
234.5	65.96
234.719	82.87
234.937	77.28
235.156	46.08
235.374	50.24
235.593	63.25
235.811	38.28
236.03	43.48
236.249	47.84
236.467	56.4
236.686	55.14
236.904	61.56
237.123	53.83
237.341	58.61
237.559	42.62
237.778	39.45
237.996	38.31
238.215	46.85
238.433	56.58
238.652	59.5
238.87	77.04
239.088	77.21
239.307	73.1
239.525	53.44
239.743	43.02
239.962	27.31
240.18	29.87
240.398	22.18
240.617	19.01
240.835	40.03
241.053	37.76
241.271	27.62
241.49	20.48
241.708	16.54
241.926	0.37
242.144	5.69
242.363	20.49
242.581	49.78
242.799	58.34
243.017	48.35
243.235	68.32
243.453	70.83
243.672	74.89
243.89	45.13
244.108	49.25
244.326	32.49
244.544	20.45
244.762	16.27
244.98	50.6
245.198	40.53
245.416	44.66
245.634	67.12
245.852	71.44
246.07	60.63
246.288	67.25
246.506	57.34
246.724	57.31
246.942	49.44
247.16	37.31
247.378	37.01
247.596	53.37
247.814	42.33
248.032	49.34
248.25	55.79
248.468	60.56
248.685	50.86
248.903	39.91
249.121	38.34
249.339	32.88
249.557	44.91
249.775	26.14
249.992	25.72
250.21	13.09
250.428	33.09
250.646	17.44
250.863	27.63
251.081	48.5
251.299	71.92
251.517	59.24
251.734	89.67
251.952	90.86
252.17	76.97
252.387	55.41
252.605	56.32
252.823	33.38
253.04	70.52
253.258	70.8
253.475	74.61
253.693	88.19
253.911	92.92
254.128	64.99
254.346	61.31
254.563	55.06
254.781	32.17
254.998	53.26
255.216	21.5
255.433	22.93
255.651	26.99
255.868	22.67
256.086	5.06
256.303	32.67
256.521	53.88
256.738	64.51
256.956	66.88
257.173	73.99
257.39	71.98
257.608	63.17
257.825	57.43
258.043	57.15
258.26	61.07
258.477	57.56
258.695	55.79
258.912	58.98
259.129	60.42
259.346	40.45
259.564	48.9
259.781	67.54
259.998	65
260.216	63.84
260.433	71.06
260.65	71.3
260.867	53.55
261.084	56.19
261.302	56.62
261.519	63.17
261.736	41.9
261.953	47.63
262.17	37.71
262.387	31.43
262.604	34.94
262.822	44.53
263.039	41.02
263.256	50.42
263.473	65.32
263.69	72.29
263.907	58.99
264.124	68.48
264.341	64.67
264.558	57.73
264.775	39.55
264.992	55.63
265.209	53.07
265.426	56.93
265.643	71.01
265.86	68.58
266.077	66.64
266.294	85.6
266.51	80.4
266.727	56.2
266.944	44.48
267.161	39.82
267.378	14.11
267.595	24.58
267.812	56.91
268.028	82.62
268.245	87.92
268.462	99.44
268.679	79.39
268.896	69.16
269.112	54.2
269.329	48.23
269.546	52.3
269.763	46.9
269.979	32.76
270.196	38.01
270.413	54.39
270.629	64
270.846	83.03
271.063	82.11
271.279	78.44
271.496	65.3
271.712	36.61
271.929	-8.18
272.146	-14.2
272.362	21.26
272.579	39.86
272.795	43.56
273.012	44.06
273.228	38.08
273.445	26.17
273.661	20.69
273.878	17.15
274.094	26.49
274.311	27.41
274.527	32.81
274.744	19.43
274.96	31.9
275.177	22.71
275.393	27.8
275.609	29.37
275.826	51.15
276.042	53.91
276.259	71.32
276.475	68.86
276.691	69.26
276.908	55.27
277.124	41.86
277.34	40.52
277.557	35.82
277.773	36.91
277.989	43.15
278.205	49.36
278.422	43.26
278.638	49.35
278.854	56.43
279.07	40
279.286	34.88
279.503	37.49
279.719	42.23
279.935	42.12
280.151	52.96
280.367	51.23
280.583	53.58
280.799	53.46
281.016	49.53
281.232	47.44
281.448	48.5
281.664	48.41
281.88	53.38
282.096	60.35
282.312	73.14
282.528	77.92
282.744	95.92
282.96	81.17
283.176	90.25
283.392	82.26
283.608	98.7
283.824	75.4
284.04	52.36
284.256	43.41
284.471	48.8
284.687	35.55
284.903	40.39
285.119	65.25
285.335	63.16
285.551	47.29
285.767	61.68
285.982	53.55
286.198	47.53
286.414	41.41
286.63	46.03
286.846	28.39
287.061	19.53
287.277	8.15
287.493	19.49
287.709	16.5
287.924	39.14
288.14	57.68
288.356	73.22
288.571	65.21
288.787	69.47
289.003	55.55
289.218	54.16
289.434	34.71
289.65	46.96
289.865	30.26
290.081	29.41
290.296	22.91
290.512	33.53
290.727	26.94
290.943	37.76
291.159	54.99
291.374	71.6
291.59	61.36
291.805	62.55
292.021	59.93
292.236	54.76
292.451	44.93
292.667	50.93
292.882	38.66
293.098	41.46
293.313	52.6
293.529	66.72
293.744	55.77
293.959	68.08
294.175	71.13
294.39	57.73
294.605	56.4
294.821	67.83
295.036	59.5
295.251	70.53
295.467	72.54
295.682	54.74
295.897	54.37
296.112	70.76
296.328	48.47
296.543	51.7
296.758	57.1
296.973	59.85
297.188	69.08
297.404	64.65
297.619	60.41
297.834	61.47
298.049	49.64
298.264	43.21
298.479	45.63
298.694	48.08
298.909	40.75
299.125	39.19
299.34	27.59
299.555	36.05
299.77	33.87
299.985	40.39
300.2	55.86
300.415	62.26
300.63	51.3
300.845	61.86
301.06	68.28
301.275	35.04
301.49	40.29
301.704	31.34
301.919	37.26
302.134	46.87
302.349	62.25
302.564	56.77
302.779	51.99
302.994	42.98
303.209	40.81
303.423	34.92
303.638	37.06
303.853	50.98
304.068	59.37
304.283	55.6
304.497	49.22
304.712	47.85
304.927	55.64
305.142	61.34
305.356	48.95
305.571	75.59
305.786	71.91
306	58.96
306.215	37.63
306.43	45.87
306.644	41.36
306.859	56.24
307.074	70.43
307.288	85.1
307.503	75.9
307.717	73.76
307.932	59.59
308.147	53.02
308.361	45.28
308.576	46.95
308.79	32.06
309.005	25.83
309.219	16.44
309.434	25.06
309.648	34.33
309.863	41.11
310.077	39.34
310.292	49.75
310.506	32.08
310.72	38.13
310.935	49.07
311.149	71.03
311.364	51.44
311.578	57.83
311.792	49.33
312.007	35.05
312.221	39.57
312.435	48.79
312.649	52.2
312.864	1.98
313.078	-2.91
313.292	-26.88
313.507	-12.48
313.721	13.46
313.935	53.13
314.149	43.73
314.363	42.68
314.578	38.01
314.792	30.61
315.006	42.69
315.22	52.54
315.434	44.95
315.648	48.13
315.862	30.35
316.077	23.94
316.291	19.84
316.505	38.69
316.719	38.42
316.933	47.06
317.147	46.63
317.361	42.44
317.575	29.64
317.789	25.3
318.003	24.02
318.217	35.28
318.431	34.58
318.645	39.06
318.859	35.76
319.073	24.5
319.287	25.49
319.5	24.39
319.714	23.22
319.928	37.37
320.142	47.04
320.356	41.21
320.57	42.78
320.784	60.09
320.997	59.62
321.211	72.38
321.425	70.74
321.639	64.92
321.853	46.13
322.066	37.25
322.28	22.38
322.494	20.03
322.707	35.43
322.921	40.44
323.135	33.96
323.349	38.64
323.562	31.9
323.776	23.98
323.989	-2.9
324.203	15.86
324.417	17.89
324.63	44.06
324.844	59.95
325.057	91.08
325.271	90.08
325.485	75.04
325.698	69.16
325.912	56.44
326.125	63.59
326.339	59.03
326.552	55.28
326.766	56.02
326.979	50.9
327.193	35.56
327.406	32.79
327.619	25.44
327.833	19.5
328.046	23.82
328.26	20.91
328.473	11.12
328.686	25.9
328.9	26.3
329.113	24.76
329.326	31.36
329.54	50.36
329.753	22.77
329.966	33.05
330.179	29.05
330.393	32.85
330.606	24.92
330.819	44.92
331.032	39.53
331.246	38.07
331.459	35.53
331.672	37
331.885	24.82
332.098	42.56
332.311	45.67
332.525	45.19
332.738	37.12
332.951	52.04
333.164	40.74
333.377	27.07
333.59	32.6
333.803	37.8
334.016	12.93
334.229	8.02
334.442	37.87
334.655	41.66
334.868	46.51
335.081	60.84
335.294	64.97
335.507	54.21
335.72	60.09
335.933	48.2
336.146	50.69
336.359	46.22
336.572	44.37
336.785	35.26
336.997	47.77
337.21	49.42
337.423	47.05
337.636	35.16
337.849	24.37
338.062	29.63
338.274	26.93
338.487	41.95
338.7	50.18
338.913	58.29
339.125	55.28
339.338	53.04
339.551	35.62
339.763	13.84
339.976	16.6
340.189	15.87
340.402	14.29
340.614	18.97
340.827	34.53
341.039	34.41
341.252	34.13
341.465	32.11
341.677	38.62
341.89	43.98
342.102	50.59
342.315	51.95
342.527	57.95
342.74	64.09
342.952	63.19
343.165	55.64
343.377	50.6
343.59	51.68
343.802	44.63
344.015	51.31
344.227	58.62
344.44	69.32
344.652	57.03
344.864	47.55
345.077	35.97
345.289	26.72
345.502	21.54
345.714	21.26
345.926	18.39
346.139	17.73
346.351	24.59
346.563	30.72
346.775	30.39
346.988	28.42
347.2	18.16
347.412	15.63
347.624	13.87
347.837	-3.38
348.049	7.01
348.261	14.17
348.473	18.59
348.685	27.96
348.897	46.08
349.11	53.44
349.322	44.06
349.534	49.3
349.746	52.2
349.958	56.75
350.17	57.28
350.382	65.2
350.594	58.16
350.806	63.48
351.018	57.95
351.23	66.35
351.442	66.14
351.654	86.49
351.866	63.87
352.078	58.13
352.29	43.77
352.502	47.86
352.714	31.24
352.926	38.33
353.138	42.33
353.35	36.04
353.561	29.81
353.773	41.33
353.985	44.43
354.197	48.39
354.409	54.39
354.621	51.76
354.832	51.54
355.044	37.02
355.256	38.65
355.468	52.45
355.679	52.25
355.891	45.88
356.103	60.74
356.314	55.77
356.526	50.07
356.738	47.4
356.949	49.86
357.161	42.92
357.373	34.14
357.584	25.85
357.796	32.28
358.008	44.14
358.219	52.72
358.431	52.8
358.642	50.26
358.854	47.53
359.065	38.49
359.277	41.73
359.488	57.15
359.7	73.92
359.911	86.73
360.123	90.58
360.334	72.89
360.546	58.53
360.757	43.64
360.969	17.65
361.18	23.93
361.391	30.72
361.603	37.38
361.814	38.16
362.025	39.66
362.237	29.37
362.448	29.49
362.659	31.39
362.871	41.49
363.082	57.08
363.293	53.91
363.504	51.66
363.716	48.56
363.927	38.36
364.138	35.58
364.349	40.76
364.56	52.65
364.772	52.65
364.983	44.09
365.194	39.13
365.405	44.23
365.616	36.81
365.827	39.28
366.038	51.18
366.25	38.46
366.461	30.98
366.672	41.04
366.883	32.22
367.094	24.12
367.305	41.38
367.516	25.96
367.727	32.57
367.938	28.73
368.149	27.61
368.36	36.75
368.571	51.92
368.781	35.5
368.992	36.13
369.203	31.66
369.414	33.6
369.625	29.31
369.836	33.41
370.047	40.57
370.258	50.2
370.468	46.87
370.679	44.72
370.89	42.19
371.101	33.07
371.312	33.79
371.522	29.48
371.733	25.61
371.944	35.11
372.155	40.72
372.365	22.6
372.576	20.63
372.787	31.97
372.997	31.28
373.208	25.04
373.419	37.26
373.629	43.51
373.84	35.96
374.05	36.56
374.261	35.98
374.472	43.19
374.682	43.43
374.893	55.23
375.103	51.93
375.314	49.23
375.524	49.24
375.735	46
375.945	21.9
376.156	26.85
376.366	39.38
376.577	26.04
376.787	18.08
376.997	24.9
377.208	27.58
377.418	24.04
377.629	32.02
377.839	53.13
378.049	60.47
378.26	62.16
378.47	56.49
378.68	60.65
378.89	45.02
379.101	30.93
379.311	34.64
379.521	41.48
379.732	32.02
379.942	46.73
380.152	45.2
380.362	39.93
380.572	30.16
380.783	32.16
380.993	17.89
381.203	23.19
381.413	15.75
381.623	23.84
381.833	24.83
382.043	25.9
382.253	24.05
382.463	25.61
382.674	28.07
382.884	25.14
383.094	26.86
383.304	31.81
383.514	46.08
383.724	40.99
383.934	34.7
384.144	26.16
384.353	24.61
384.563	16.8
384.773	18.47
384.983	19.66
385.193	19.92
385.403	22.15
385.613	21.76
385.823	21.44
386.033	23.4
386.242	30.6
386.452	26.22
386.662	29.94
386.872	30.25
387.082	28.46
387.291	20.59
387.501	18.61
387.711	10.52
387.921	8.53
388.13	11.36
388.34	14.98
388.55	14.35
388.759	16.49
388.969	18.41
389.179	17.06
389.388	17.32
389.598	22.77
389.807	18.08
390.017	14.82
390.227	16.58
390.436	14.83
390.646	11.28
390.855	12.08
391.065	11.1
391.274	9.42
391.484	8.71
391.693	9.39
391.903	10.51
392.112	13.02
392.322	12.74
392.531	12.54
392.74	11.12
392.95	11.57
393.159	11.13
393.369	11.45
393.578	12.28
393.787	12.9
393.997	11.87
394.206	12.33
394.415	11.88
394.625	11.04
394.834	10.1
395.043	11.01
395.252	10.87
395.462	11.23
395.671	10.75
395.88	11.65
396.089	11.67
396.298	11.12
396.508	10.98
396.717	11.8
396.926	11.64
397.135	10.53
397.344	10.72
397.553	10.51
397.762	10.07
397.971	9.89
398.181	10.41
398.39	10.16
398.599	10.57
398.808	10.65
399.017	11.4
399.226	11.49
399.435	11.79
399.644	11.47
399.853	11.45
400.062	10.63
400.27	10.44
400.479	9.8
400.688	9.88
400.897	10.09
401.106	10.45
401.315	10.7
401.524	11.1
401.733	11.06
401.941	10.84
402.15	10.61
402.359	10.49
402.568	10.49
402.777	10.42
402.985	10.44
403.194	10.48
403.403	10.45
403.612	10.24
403.82	10.16
404.029	10
404.238	10.19
404.446	10.18
404.655	10.25
404.864	10.16
405.072	10.23
405.281	10.05
405.489	9.88
405.698	9.98
405.906	10.01
406.115	9.85
406.324	9.59
406.532	9.55
406.741	9.41
406.949	9.47
407.158	9.46
407.366	9.42
407.574	9.6
407.783	9.42
407.991	9.36
408.2	9.49
408.408	9.8
408.617	9.59
408.825	9.68
409.033	9.71
409.242	9.61
409.45	9.47
409.658	9.5
409.867	9.44
410.075	9.35
410.283	9.38
410.491	9.32
410.7	9.23
410.908	9.3
411.116	9.33
411.324	9.23
411.533	9.27
411.741	9.24
411.949	9.09
412.157	8.95
412.365	9.12
412.573	9.01
412.781	8.94
412.99	9.01
413.198	9.1
413.406	9.03
413.614	9.12
413.822	9.18
414.03	9.1
414.238	9.07
414.446	8.91
414.654	8.85
414.862	8.86
415.07	8.8
415.278	8.76
415.486	8.79
415.694	8.66
415.902	8.63
416.109	8.67
416.317	8.66
416.525	8.59
416.733	8.6
416.941	8.68
417.149	8.55
417.357	8.72
417.564	8.7
417.772	8.82
417.98	8.86
418.188	9.07
418.395	8.84
418.603	8.87
418.811	8.89
419.019	8.83
419.226	8.81
419.434	8.99
419.642	9.16
419.849	8.85
420.057	8.64
420.265	8.55
420.472	8.29
420.68	8.18
420.887	8.28
421.095	8.38
421.302	8.36
421.51	8.46
421.717	8.45
421.925	8.3
422.132	8.2
422.34	8.14
422.547	8.17
422.755	8.05
422.962	8.07
423.17	8.18
423.377	8.38
423.585	8.34
423.792	8.45
423.999	8.39
424.207	8.28
424.414	8.04
424.621	7.91
424.829	7.55
425.036	7.66
425.243	7.61
425.451	7.6
425.658	7.58
425.865	7.8
426.072	7.77
426.28	7.87
426.487	7.97
426.694	8.08
426.901	8.16
427.108	8.31
427.315	8.19
427.523	8.08
427.73	7.83
427.937	7.87
428.144	7.89
428.351	7.86
428.558	8.03
428.765	8.23
428.972	8.09
429.179	7.97
429.386	8.02
429.593	8.09
429.8	8.06
430.007	8.07
430.214	8.19
430.421	8.26
430.628	8.11
430.835	8.11
431.042	8.1
431.249	8.01
431.456	7.97
431.662	8.11
431.869	8.11
432.076	8.11
432.283	8.18
432.49	8.17
432.697	8.06
432.903	8.16
433.11	8.34
433.317	8.28
433.524	8.28
433.73	8.26
433.937	8.13
434.144	8.06
434.35	8.07
434.557	8.1
434.764	8.08
434.97	8.01
435.177	8
435.384	7.9
435.59	7.9
435.797	7.85
436.003	7.83
436.21	7.68
436.416	7.73
436.623	7.52
436.829	7.47
437.036	7.55
437.242	7.62
437.449	7.6
437.655	7.71
437.862	7.77
438.068	7.69
438.275	7.82
438.481	7.93
438.687	7.95
438.894	8.06
439.1	8.15
439.307	7.99
439.513	7.84
439.719	8.03
439.926	7.91
440.132	7.93
440.338	7.85
440.544	7.93
440.751	7.72
440.957	7.79
441.163	7.78
441.369	7.89
441.575	7.78
441.782	7.93
441.988	7.8
442.194	7.82
442.4	7.98
442.606	8
442.812	7.9
443.018	7.83
443.224	7.81
443.431	7.55
443.637	7.73
443.843	7.61
444.049	7.73
444.255	7.62
444.461	7.64
444.667	7.52
444.873	7.66
445.079	7.72
445.284	7.72
445.49	7.87
445.696	7.83
445.902	7.75
446.108	7.69
446.314	7.74
446.52	7.77
446.726	7.8
446.931	7.93
447.137	7.86
447.343	7.77
447.549	7.64
447.755	7.58
447.96	7.45
448.166	7.57
448.372	7.75
448.578	7.69
448.783	7.63
448.989	7.74
449.195	7.69
449.4	7.68
449.606	7.79
449.812	7.89
450.017	7.78
450.223	7.81
450.428	7.75
450.634	7.72
450.84	7.86
451.045	7.95
451.251	7.98
451.456	7.96
451.662	8.02
451.867	7.84
452.073	7.71
452.278	7.68
452.483	7.68
452.689	7.64
452.894	7.67
453.1	7.71
453.305	7.72
453.51	7.78
453.716	7.72
453.921	7.8
454.127	7.82
454.332	7.8
454.537	7.79
454.742	7.84
454.948	7.71
455.153	7.81
455.358	7.78
455.563	7.75
455.769	7.68
455.974	7.7
456.179	7.65
456.384	7.56
456.589	7.67
456.795	7.69
457	7.75
457.205	7.69
457.41	7.81
457.615	7.7
457.82	7.62
458.025	7.59
458.23	7.74
458.435	7.7
458.64	7.6
458.845	7.7
459.05	7.69
459.255	7.69
459.46	7.7
459.665	7.84
459.87	7.82
460.075	7.97
460.28	7.86
460.485	7.85
460.69	7.82
460.895	7.89
461.099	7.75
461.304	7.81
461.509	7.76
461.714	7.83
461.919	7.72
462.123	7.79
462.328	7.7
462.533	7.69
462.738	7.65
462.942	7.67
463.147	7.62
463.352	7.6
463.556	7.74
463.761	7.64
463.966	7.53
464.17	7.63
464.375	7.59
464.58	7.57
464.784	7.76
464.989	7.87
465.193	7.75
465.398	7.93
465.602	7.9
465.807	7.8
466.011	7.84
466.216	7.87
466.42	7.88
466.625	7.88
466.829	7.88
467.034	7.89
