Data from Ofav_PP_Phys_369_Reflection_2.txt Node
Date: Tue Jul 27 19:07:31 EDT 2021
User: USUARIO
Spectrometer: FLMT01687
Trigger mode: 0
Integration Time (sec): 8.500000E-1
Scans to average: 2
Electric dark correction enabled: true
Nonlinearity correction enabled: false
Boxcar width: 2
XAxis mode: Wavelengths
Number of Pixels in Spectrum: 3648
>>>>>Begin Spectral Data<<<<<
179.494	-1233.33
179.716	-479.84
179.937	-300
180.158	-295.95
180.38	-293.5
180.601	-231.67
180.823	-16.64
181.044	63.42
181.265	39.64
181.486	-7
181.708	2.28
181.929	52.89
182.15	133.27
182.372	344.56
182.593	25.8
182.814	55.59
183.035	38.8
183.257	19.89
183.478	19.05
183.699	35.14
183.92	40.11
184.141	44.34
184.363	54.58
184.584	62.1
184.805	93.09
185.026	86.88
185.247	108.78
185.468	98.63
185.689	88.94
185.91	60.76
186.132	35.4
186.353	30.2
186.574	25.49
186.795	36.93
187.016	31.06
187.237	33.7
187.458	44.85
187.679	64.34
187.9	32.49
188.121	45.4
188.342	69.3
188.563	60.44
188.784	52.5
189.005	70.93
189.226	61.07
189.447	48.13
189.667	61.74
189.888	63.21
190.109	63.35
190.33	82.85
190.551	59.92
190.772	38.44
190.993	33.36
191.214	41.56
191.434	32.36
191.655	36.31
191.876	37.86
192.097	33.12
192.318	29.21
192.538	44.91
192.759	61.37
192.98	48.45
193.201	35.77
193.421	45.15
193.642	23
193.863	3.48
194.083	21.76
194.304	26.91
194.525	6.24
194.745	-8.06
194.966	-34.08
195.187	-67.04
195.407	-24.97
195.628	-22.03
195.848	11.33
196.069	46.09
196.29	100.99
196.51	75.71
196.731	69.76
196.951	75.98
197.172	77.16
197.392	47.94
197.613	56.88
197.833	43.56
198.054	45.95
198.274	41.16
198.495	59.35
198.715	60.77
198.936	94.19
199.156	112.13
199.377	160.22
199.597	145.33
199.817	125.58
200.038	152.61
200.258	89.9
200.479	39.31
200.699	61.99
200.919	25.56
201.14	48.44
201.36	26.06
201.58	24.23
201.801	4.81
202.021	21.65
202.241	8.9
202.461	30.05
202.682	38.59
202.902	51.02
203.122	69.45
203.342	68.07
203.563	54.43
203.783	54.68
204.003	41.84
204.223	33.56
204.443	36.77
204.663	6.27
204.884	-13.51
205.104	15.09
205.324	27.01
205.544	15.73
205.764	35.62
205.984	47.81
206.204	34.29
206.424	16.12
206.644	31.82
206.864	39.39
207.084	40.71
207.304	48.62
207.525	51.51
207.745	59.35
207.964	59.02
208.184	69.64
208.404	65.49
208.624	69.12
208.844	74.69
209.064	62.54
209.284	45.72
209.504	53.37
209.724	34.95
209.944	-8.36
210.164	16.96
210.384	42.96
210.604	2.79
210.823	39.36
211.043	53.22
211.263	46.26
211.483	59.19
211.703	70.47
211.922	69.73
212.142	106.37
212.362	72.1
212.582	51.41
212.801	56.89
213.021	50.68
213.241	1.9
213.461	-11.58
213.68	4.22
213.9	-45.72
214.12	-14.94
214.339	27.46
214.559	36.45
214.779	28.55
214.998	46.06
215.218	19.53
215.438	19.08
215.657	35.73
215.877	41.58
216.096	41.7
216.316	85.21
216.535	66.5
216.755	83.27
216.974	88.21
217.194	79.83
217.413	59.54
217.633	72.77
217.852	39.76
218.072	24.11
218.291	24.79
218.511	9.47
218.73	11.85
218.95	6.96
219.169	16.67
219.389	0.05
219.608	-10.96
219.827	2.35
220.047	18.57
220.266	35.66
220.485	45.32
220.705	59.73
220.924	47.98
221.143	32.88
221.363	3.25
221.582	4.14
221.801	-2.51
222.021	8.24
222.24	23.69
222.459	27.98
222.678	33.65
222.897	49.04
223.117	61.07
223.336	66.86
223.555	54.75
223.774	45.18
223.993	45.79
224.213	31.95
224.432	34.59
224.651	48.48
224.87	39.33
225.089	37.11
225.308	38.19
225.527	46.57
225.746	48.66
225.965	62.83
226.184	48.96
226.404	47.66
226.623	36.01
226.842	23.08
227.061	18.28
227.28	34.12
227.499	50.21
227.718	42.83
227.936	48.05
228.155	48.4
228.374	49.24
228.593	41.05
228.812	55.65
229.031	60.47
229.25	63.78
229.469	69.72
229.688	78.46
229.907	54.05
230.125	57.68
230.344	79.06
230.563	76.74
230.782	74.81
231.001	65.4
231.22	51.24
231.438	25.78
231.657	6.1
231.876	-2.12
232.095	8.42
232.313	23.74
232.532	37.61
232.751	63.27
232.969	58.38
233.188	55.47
233.407	45.89
233.625	31.05
233.844	8.21
234.063	17.36
234.281	30.42
234.5	18.12
234.719	44.56
234.937	32.12
235.156	29
235.374	26.03
235.593	42.49
235.811	19.3
236.03	23.45
236.249	19.9
236.467	18.81
236.686	18.89
236.904	32.1
237.123	46.79
237.341	53.54
237.559	47.63
237.778	49.34
237.996	44.77
238.215	31.75
238.433	33.76
238.652	34.66
238.87	29.6
239.088	11.3
239.307	19.61
239.525	-11.61
239.743	-23.7
239.962	-12.95
240.18	15.86
240.398	15.66
240.617	35.94
240.835	51.02
241.053	53.5
241.271	37.7
241.49	38.33
241.708	54.13
241.926	29.03
242.144	14.38
242.363	47.34
242.581	67.6
242.799	35.84
243.017	41.84
243.235	79.89
243.453	55.94
243.672	49.6
243.89	41.86
244.108	35.32
244.326	36.18
244.544	19.1
244.762	8.79
244.98	39.05
245.198	59.98
245.416	58.69
245.634	71.9
245.852	98.39
246.07	81.76
246.288	70.49
246.506	72.28
246.724	78.98
246.942	66.49
247.16	58.51
247.378	55.86
247.596	43.14
247.814	40.12
248.032	24.65
248.25	24.94
248.468	15.78
248.685	16.25
248.903	7.57
249.121	12.72
249.339	28.27
249.557	40.1
249.775	26.6
249.992	24.66
250.21	36.02
250.428	22.43
250.646	8.53
250.863	28.31
251.081	44.52
251.299	23.03
251.517	25.45
251.734	42.66
251.952	31.26
252.17	24.48
252.387	24.37
252.605	46.94
252.823	48.93
253.04	53.01
253.258	49.73
253.475	58.85
253.693	60.92
253.911	64.59
254.128	66.91
254.346	81.85
254.563	81.73
254.781	74.64
254.998	77.33
255.216	48.78
255.433	30.18
255.651	26.91
255.868	19.4
256.086	4.64
256.303	21.69
256.521	45.94
256.738	40.76
256.956	33.64
257.173	43.47
257.39	35.61
257.608	21.29
257.825	39.39
258.043	51.96
258.26	51.4
258.477	57.14
258.695	43.28
258.912	33.41
259.129	20.5
259.346	14.86
259.564	24.92
259.781	57.74
259.998	40.03
260.216	57.16
260.433	60.41
260.65	58.37
260.867	58.74
261.084	66.91
261.302	43.52
261.519	41.07
261.736	23.28
261.953	17.06
262.17	18.31
262.387	23.06
262.604	30.51
262.822	43.41
263.039	37.16
263.256	39.53
263.473	54.5
263.69	53.19
263.907	40.32
264.124	51.24
264.341	61.04
264.558	55.41
264.775	54.84
264.992	66.24
265.209	52.89
265.426	40.95
265.643	42.36
265.86	29.43
266.077	22.06
266.294	37.8
266.51	48.22
266.727	49.27
266.944	50.58
267.161	-11.6
267.378	-33.88
267.595	-25.47
267.812	-25.33
268.028	-16.07
268.245	59.21
268.462	70.48
268.679	38.94
268.896	12.86
269.112	-12.71
269.329	-12.39
269.546	8.11
269.763	9.01
269.979	24.99
270.196	55.32
270.413	66.07
270.629	64.57
270.846	81.81
271.063	64.83
271.279	46
271.496	20.93
271.712	0.93
271.929	-19.92
272.146	-19.73
272.362	20.96
272.579	33.42
272.795	46.6
273.012	41
273.228	33.85
273.445	36.12
273.661	37.49
273.878	20.5
274.094	20.54
274.311	37.21
274.527	29.81
274.744	20.88
274.96	28.26
275.177	26.47
275.393	17.71
275.609	17.26
275.826	22.43
276.042	29.49
276.259	48.58
276.475	53.51
276.691	41.16
276.908	45.37
277.124	41.81
277.34	32.79
277.557	17
277.773	28
277.989	22.74
278.205	30.81
278.422	28.29
278.638	37.49
278.854	45.18
279.07	43.15
279.286	31.11
279.503	22.47
279.719	37.52
279.935	48.96
280.151	56.77
280.367	69.91
280.583	82.42
280.799	84.96
281.016	65.38
281.232	55.15
281.448	44.48
281.664	30.36
281.88	11.28
282.096	24.76
282.312	27.16
282.528	15.05
282.744	25.97
282.96	25.54
283.176	32.62
283.392	43.86
283.608	75.31
283.824	62.68
284.04	35.82
284.256	26.71
284.471	23.25
284.687	13.1
284.903	10.56
285.119	39.5
285.335	40.06
285.551	29.96
285.767	45.56
285.982	49.3
286.198	42.67
286.414	21.35
286.63	15.58
286.846	-3.46
287.061	0.82
287.277	-5.09
287.493	11.32
287.709	28.58
287.924	40.91
288.14	58.13
288.356	62.42
288.571	75.33
288.787	61.9
289.003	53.43
289.218	27.52
289.434	19.43
289.65	3.99
289.865	-17.23
290.081	-13.34
290.296	-7.53
290.512	-6.99
290.727	6.56
290.943	11.42
291.159	38.94
291.374	52.48
291.59	54.77
291.805	48.79
292.021	55.13
292.236	44.76
292.451	37.2
292.667	36.21
292.882	33.61
293.098	34.2
293.313	41.77
293.529	61.55
293.744	65.77
293.959	61.04
294.175	62.16
294.39	47.61
294.605	34.88
294.821	30.61
295.036	30.47
295.251	32.59
295.467	53.2
295.682	36.8
295.897	32.68
296.112	66.76
296.328	58.37
296.543	57.55
296.758	58.1
296.973	53.86
297.188	52.87
297.404	47.88
297.619	34.8
297.834	39.24
298.049	48.73
298.264	39.74
298.479	39.18
298.694	41.29
298.909	40.94
299.125	31.79
299.34	20.26
299.555	31.73
299.77	37.58
299.985	29.87
300.2	34.74
300.415	43.36
300.63	29.98
300.845	36.36
301.06	41.32
301.275	39.9
301.49	23.93
301.704	31.06
301.919	27.56
302.134	38.77
302.349	31.18
302.564	38.47
302.779	20.36
302.994	20.91
303.209	19.24
303.423	8.7
303.638	-0.13
303.853	25.33
304.068	29.26
304.283	24.27
304.497	32.4
304.712	32.74
304.927	28.92
305.142	30.99
305.356	10.94
305.571	22.9
305.786	30.15
306	23.41
306.215	19.88
306.43	33.85
306.644	33.53
306.859	28.39
307.074	36.69
307.288	37.36
307.503	35.24
307.717	31.4
307.932	44.63
308.147	48.34
308.361	43.74
308.576	41.22
308.79	52.24
309.005	18.27
309.219	13.92
309.434	15.59
309.648	29.63
309.863	15.45
310.077	32.31
310.292	21.74
310.506	16.57
310.72	16.41
310.935	18.24
311.149	28
311.364	36.8
311.578	35.34
311.792	43.66
312.007	41.4
312.221	33.31
312.435	36.59
312.649	51.88
312.864	41.21
313.078	32.13
313.292	14.76
313.507	24.43
313.721	29.13
313.935	27.79
314.149	35.91
314.363	42.63
314.578	42.83
314.792	31.53
315.006	37.28
315.22	31.91
315.434	36.78
315.648	13.55
315.862	12.98
316.077	7.92
316.291	5.62
316.505	-6.67
316.719	28.26
316.933	32.71
317.147	18.65
317.361	31.18
317.575	23.47
317.789	19.77
318.003	18.01
318.217	30.71
318.431	34.16
318.645	48.37
318.859	49.93
319.073	34.35
319.287	25.76
319.5	7.24
319.714	6.4
319.928	7.3
320.142	9.5
320.356	37.53
320.57	47.77
320.784	48.92
320.997	45.59
321.211	56.06
321.425	44.74
321.639	28.11
321.853	26.72
322.066	29.79
322.28	11.51
322.494	13.28
322.707	27.19
322.921	22.17
323.135	15.84
323.349	21.25
323.562	15.39
323.776	3.75
323.989	-0.71
324.203	11.48
324.417	22.59
324.63	51
324.844	62.45
325.057	81.81
325.271	96.59
325.485	59.54
325.698	49.2
325.912	58.63
326.125	57.99
326.339	45.75
326.552	54.11
326.766	36.4
326.979	23.46
327.193	1.18
327.406	-4.78
327.619	-5.25
327.833	-0.7
328.046	17.59
328.26	14.93
328.473	8.49
328.686	11.24
328.9	18.04
329.113	3.98
329.326	18.83
329.54	18.44
329.753	-0.2
329.966	-7.09
330.179	1.26
330.393	23.67
330.606	14.41
330.819	28.13
331.032	33.54
331.246	39.88
331.459	25.82
331.672	44.57
331.885	52.35
332.098	69.84
332.311	64.89
332.525	67.68
332.738	52.63
332.951	57.95
333.164	28.41
333.377	27.32
333.59	35.62
333.803	49
334.016	24.89
334.229	38.83
334.442	35.9
334.655	41.74
334.868	37.68
335.081	38.13
335.294	43.83
335.507	56.95
335.72	56.71
335.933	41.73
336.146	45.84
336.359	38.9
336.572	33.2
336.785	28.58
336.997	49
337.21	55.23
337.423	53.08
337.636	54.87
337.849	39.54
338.062	36.51
338.274	30.58
338.487	36.95
338.7	20.78
338.913	12.08
339.125	8.75
339.338	11.34
339.551	-21.98
339.763	-0.35
339.976	21
340.189	12.81
340.402	15.74
340.614	34.54
340.827	30.53
341.039	15.72
341.252	14.87
341.465	-7.41
341.677	-3.92
341.89	-18.49
342.102	7.56
342.315	23.86
342.527	30.87
342.74	23.55
342.952	13.22
343.165	26.61
343.377	18.68
343.59	21.44
343.802	30.62
344.015	35.84
344.227	11.11
344.44	-13.24
344.652	0.54
344.864	-20.51
345.077	-15.52
345.289	-17.14
345.502	-11.24
345.714	-7.89
345.926	-0.99
346.139	16.56
346.351	25.86
346.563	31.16
346.775	35.74
346.988	24.83
347.2	19.9
347.412	30.25
347.624	18.68
347.837	-8.35
348.049	5.47
348.261	19.85
348.473	18.39
348.685	33.06
348.897	39.27
349.11	37.41
349.322	15.34
349.534	17.12
349.746	16.24
349.958	15.47
350.17	17.09
350.382	22.82
350.594	24.83
350.806	29.98
351.018	29.04
351.23	30.69
351.442	33.8
351.654	27.38
351.866	15.75
352.078	19.18
352.29	12.2
352.502	21.23
352.714	28.05
352.926	27.82
353.138	35.66
353.35	50.44
353.561	39.8
353.773	28.58
353.985	28.21
354.197	15.76
354.409	18.03
354.621	24.45
354.832	36.15
355.044	48.78
355.256	57.17
355.468	59.35
355.679	59.04
355.891	63.56
356.103	62.34
356.314	59.73
356.526	54.16
356.738	57.6
356.949	44.39
357.161	46.27
357.373	42.84
357.584	42.36
357.796	42.26
358.008	40.62
358.219	37.97
358.431	38.11
358.642	35.26
358.854	41.96
359.065	36.71
359.277	37.61
359.488	40.37
359.7	46.75
359.911	47.3
360.123	58.66
360.334	46.97
360.546	36.27
360.757	36.8
360.969	11.79
361.18	18.41
361.391	19.6
361.603	39.67
361.814	37.95
362.025	49.76
362.237	39.47
362.448	47.59
362.659	28.76
362.871	27.09
363.082	26.08
363.293	13.68
363.504	6.82
363.716	9.44
363.927	-6.61
364.138	-2.22
364.349	17.49
364.56	11.66
364.772	14.17
364.983	36.19
365.194	29.98
365.405	41.19
365.616	35
365.827	40.5
366.038	37.15
366.25	44.84
366.461	42.51
366.672	42.08
366.883	40.29
367.094	29.57
367.305	23.92
367.516	13.95
367.727	39.99
367.938	39.12
368.149	46.39
368.36	42.75
368.571	36.24
368.781	21.33
368.992	22.48
369.203	21.91
369.414	24.61
369.625	30.74
369.836	35.4
370.047	33.45
370.258	31.14
370.468	29.22
370.679	16.82
370.89	6.68
371.101	6.15
371.312	9.24
371.522	1.05
371.733	14
371.944	17.43
372.155	24.22
372.365	11.35
372.576	21.7
372.787	22.86
372.997	29.88
373.208	31.76
373.419	40.92
373.629	37.79
373.84	39.17
374.05	37.8
374.261	29.2
374.472	21.53
374.682	24.55
374.893	18.8
375.103	16.24
375.314	23.99
375.524	37.89
375.735	37
375.945	38.31
376.156	34.73
376.366	28.88
376.577	22.08
376.787	17.75
376.997	19.3
377.208	25.54
377.418	29.44
377.629	30.07
377.839	40.47
378.049	51.22
378.26	49.83
378.47	50.47
378.68	46.26
378.89	51
379.101	38.95
379.311	40.68
379.521	39.63
379.732	43.85
379.942	45.22
380.152	40.4
380.362	38.28
380.572	29.79
380.783	21.25
380.993	7.51
381.203	15.18
381.413	7.42
381.623	21.72
381.833	30.78
382.043	31.31
382.253	29.45
382.463	26
382.674	28.98
382.884	26.24
383.094	22.75
383.304	27.6
383.514	36.14
383.724	18.75
383.934	12.97
384.144	6.66
384.353	1.84
384.563	0.67
384.773	9.43
384.983	10.28
385.193	12.55
385.403	17.58
385.613	21.09
385.823	18
386.033	20.57
386.242	26.25
386.452	19.41
386.662	22.35
386.872	25.69
387.082	22.32
387.291	12.83
387.501	13.08
387.711	8.37
387.921	7.11
388.13	7
388.34	12.95
388.55	13.84
388.759	10.33
388.969	6.93
389.179	7.81
389.388	6.63
389.598	7.84
389.807	8.67
390.017	9
390.227	10.67
390.436	12.79
390.646	11.52
390.855	11.21
391.065	8.99
391.274	7.83
391.484	4.72
391.693	5.29
391.903	7.4
392.112	10.01
392.322	7.26
392.531	7.82
392.74	7.96
392.95	6.31
393.159	6.58
393.369	8.88
393.578	9.01
393.787	8.22
393.997	9.39
394.206	9.7
394.415	8.93
394.625	9.06
394.834	8.45
395.043	7.6
395.252	7.13
395.462	7.88
395.671	7.43
395.88	8.63
396.089	9.25
396.298	8.65
396.508	8.21
396.717	8.77
396.926	8.32
397.135	7.84
397.344	8.22
397.553	8.66
397.762	7.92
397.971	7.79
398.181	7.45
398.39	6.86
398.599	6.88
398.808	7.03
399.017	7.3
399.226	7.81
399.435	8.37
399.644	8.33
399.853	8.41
400.062	8.26
400.27	7.9
400.479	7.62
400.688	7.35
400.897	7.43
401.106	7.69
401.315	8.14
401.524	8.37
401.733	8.33
401.941	8.3
402.15	8.1
402.359	7.66
402.568	7.59
402.777	7.54
402.985	7.57
403.194	8.01
403.403	8.28
403.612	8.05
403.82	8.22
404.029	8.07
404.238	7.76
404.446	7.72
404.655	7.73
404.864	7.61
405.072	7.59
405.281	7.45
405.489	7.26
405.698	7.33
405.906	7.37
406.115	7.38
406.324	7.26
406.532	7.27
406.741	7.25
406.949	7.27
407.158	7.15
407.366	7.13
407.574	7.29
407.783	7.33
407.991	7.15
408.2	7.27
408.408	7.35
408.617	7.14
408.825	7
409.033	7.08
409.242	7.01
409.45	7.05
409.658	7.2
409.867	7.19
410.075	7.1
410.283	7.02
410.491	6.9
410.7	6.71
410.908	6.73
411.116	6.78
411.324	6.77
411.533	6.74
411.741	6.58
411.949	6.48
412.157	6.47
412.365	6.61
412.573	6.63
412.781	6.75
412.99	6.88
413.198	7.05
413.406	7.01
413.614	7.11
413.822	7.15
414.03	7.03
414.238	6.79
414.446	6.76
414.654	6.63
414.862	6.59
415.07	6.44
415.278	6.53
415.486	6.3
415.694	6.18
415.902	6.16
416.109	6.22
416.317	6.26
416.525	6.38
416.733	6.51
416.941	6.6
417.149	6.59
417.357	6.44
417.564	6.28
417.772	6.38
417.98	6.4
418.188	6.62
418.395	6.52
418.603	6.58
418.811	6.49
419.019	6.27
419.226	6.16
419.434	6.37
419.642	6.55
419.849	6.52
420.057	6.46
420.265	6.5
420.472	6.27
420.68	6.09
420.887	6.13
421.095	6.24
421.302	6.11
421.51	6.17
421.717	6.22
421.925	6.14
422.132	6.12
422.34	6.07
422.547	6.03
422.755	6.16
422.962	6.08
423.17	6.19
423.377	6.28
423.585	6.35
423.792	6.2
423.999	6.08
424.207	5.83
424.414	5.55
424.621	5.57
424.829	5.42
425.036	5.6
425.243	5.64
425.451	5.85
425.658	5.71
425.865	6.02
426.072	5.93
426.28	6.01
426.487	5.98
426.694	5.95
426.901	5.85
427.108	5.89
427.315	5.78
427.523	5.83
427.73	5.85
427.937	5.65
428.144	5.71
428.351	5.6
428.558	5.66
428.765	5.72
428.972	5.77
429.179	5.71
429.386	5.92
429.593	5.77
429.8	5.82
430.007	5.78
430.214	5.83
430.421	5.86
430.628	5.96
430.835	5.96
431.042	6.05
431.249	6.08
431.456	6.19
431.662	6.3
431.869	6.3
432.076	6.27
432.283	6.21
432.49	6.12
432.697	6
432.903	5.91
433.11	6.04
433.317	5.94
433.524	5.86
433.73	5.81
433.937	5.86
434.144	5.78
434.35	5.89
434.557	5.89
434.764	5.91
434.97	5.79
435.177	5.97
435.384	5.85
435.59	5.88
435.797	5.85
436.003	6.03
436.21	5.79
436.416	5.8
436.623	5.68
436.829	5.68
437.036	5.6
437.242	5.61
437.449	5.64
437.655	5.87
437.862	5.95
438.068	5.88
438.275	5.97
438.481	5.97
438.687	5.84
438.894	5.79
439.1	5.79
439.307	5.67
439.513	5.66
439.719	5.78
439.926	5.68
440.132	5.81
440.338	5.82
440.544	5.76
440.751	5.63
440.957	5.74
441.163	5.68
441.369	5.76
441.575	5.93
441.782	6.02
441.988	5.96
442.194	6
442.4	5.99
442.606	6.02
442.812	6.07
443.018	6.08
443.224	6
443.431	5.86
443.637	5.81
443.843	5.6
444.049	5.6
444.255	5.58
444.461	5.65
444.667	5.55
444.873	5.65
445.079	5.74
445.284	5.78
445.49	5.7
445.696	5.71
445.902	5.65
446.108	5.62
446.314	5.67
446.52	5.83
446.726	5.97
446.931	6.02
447.137	5.99
447.343	5.84
447.549	5.73
447.755	5.6
447.96	5.59
448.166	5.57
448.372	5.72
448.578	5.75
448.783	5.77
448.989	5.79
449.195	5.82
449.4	5.77
449.606	5.76
449.812	5.68
450.017	5.71
450.223	5.67
450.428	5.68
450.634	5.72
450.84	5.75
451.045	5.78
451.251	5.79
451.456	5.81
451.662	5.79
451.867	5.85
452.073	5.79
452.278	5.8
452.483	5.72
452.689	5.73
452.894	5.78
453.1	5.76
453.305	5.79
453.51	5.87
453.716	5.86
453.921	5.81
454.127	5.87
454.332	5.8
454.537	5.78
454.742	5.72
454.948	5.68
455.153	5.72
455.358	5.86
455.563	5.9
455.769	5.95
455.974	5.98
456.179	5.88
456.384	5.71
456.589	5.7
456.795	5.65
457	5.6
457.205	5.54
457.41	5.51
457.615	5.42
457.82	5.4
458.025	5.43
458.23	5.53
458.435	5.52
458.64	5.52
458.845	5.5
459.05	5.52
459.255	5.5
459.46	5.56
459.665	5.74
459.87	5.8
460.075	5.91
460.28	5.97
460.485	6.02
460.69	5.91
460.895	5.97
461.099	5.89
461.304	5.81
461.509	5.82
461.714	5.88
461.919	5.91
462.123	5.98
462.328	5.95
462.533	5.95
462.738	5.93
462.942	5.83
463.147	5.84
463.352	5.8
463.556	5.84
463.761	5.75
463.966	5.73
464.17	5.77
464.375	5.88
464.58	5.82
464.784	5.92
464.989	6.01
465.193	5.92
465.398	6
465.602	6.1
465.807	6.08
466.011	6.03
466.216	6.02
466.42	6.13
466.625	6.06
466.829	6.04
467.034	6.18
467.238	6.22
467.443	6.18
467.647	6.18
467.851	6.25
468.056	6.11
468.26	6.06
468.464	5.96
468.669	5.99
468.873	6.01
