Data from Ofav_PP_Phys_9JQ4_Reflection_2.txt Node
Date: Tue Jul 27 19:05:06 EDT 2021
User: USUARIO
Spectrometer: FLMT01687
Trigger mode: 0
Integration Time (sec): 8.500000E-1
Scans to average: 2
Electric dark correction enabled: true
Nonlinearity correction enabled: false
Boxcar width: 2
XAxis mode: Wavelengths
Number of Pixels in Spectrum: 3648
>>>>>Begin Spectral Data<<<<<
179.494	-1020.74
179.716	-328.49
179.937	-210.32
180.158	-186.28
180.38	-237.58
180.601	-228
180.823	54.7
181.044	61.69
181.265	25.98
181.486	-95.2
181.708	-73.57
181.929	89.45
182.15	44.49
182.372	-79.1
182.593	26.3
182.814	60.16
183.035	68.33
183.257	91.67
183.478	89.18
183.699	57.39
183.92	76
184.141	97.88
184.363	85.29
184.584	102.86
184.805	146.97
185.026	109.72
185.247	123.54
185.468	122.27
185.689	87.77
185.91	72.11
186.132	56.13
186.353	35.71
186.574	15.19
186.795	15.96
187.016	14.77
187.237	15.18
187.458	7.8
187.679	28.34
187.9	30.65
188.121	41.35
188.342	63.67
188.563	95.84
188.784	91.24
189.005	92.41
189.226	86.16
189.447	66.44
189.667	68.21
189.888	67.01
190.109	58.7
190.33	69.85
190.551	74.63
190.772	46.75
190.993	44.34
191.214	51.65
191.434	36.13
191.655	31.11
191.876	26.51
192.097	22.82
192.318	20.46
192.538	18.9
192.759	30.91
192.98	51.15
193.201	46.98
193.421	52.72
193.642	40.24
193.863	30.73
194.083	29.86
194.304	29.17
194.525	24.35
194.745	17.02
194.966	12.57
195.187	-33.23
195.407	3.63
195.628	-24.93
195.848	15.16
196.069	56.36
196.29	126.13
196.51	100.23
196.731	101.9
196.951	103.43
197.172	78.44
197.392	55.45
197.613	70.16
197.833	44.64
198.054	58.78
198.274	45.11
198.495	53.92
198.715	39.84
198.936	67.7
199.156	57.71
199.377	77.62
199.597	51.97
199.817	65.42
200.038	95.81
200.258	76.57
200.479	48.23
200.699	38.91
200.919	24.55
201.14	31.19
201.36	28.98
201.58	53.5
201.801	58.42
202.021	52.72
202.241	51.69
202.461	38.04
202.682	13.15
202.902	16.27
203.122	8.54
203.342	4.68
203.563	21.29
203.783	26.66
204.003	27.07
204.223	27.99
204.443	38.26
204.663	38.12
204.884	48.25
205.104	40.28
205.324	68.42
205.544	47.4
205.764	43.08
205.984	36.17
206.204	68.36
206.424	34.98
206.644	75.04
206.864	86.47
207.084	91.3
207.304	90.84
207.525	96.14
207.745	97.54
207.964	92.12
208.184	86.32
208.404	85.75
208.624	72.15
208.844	79.08
209.064	88.48
209.284	82.14
209.504	73.95
209.724	83.55
209.944	51.99
210.164	26.5
210.384	11.29
210.604	-19.16
210.823	8.21
211.043	31.15
211.263	28.46
211.483	39.74
211.703	45.34
211.922	53.81
212.142	20.73
212.362	13.91
212.582	-4.63
212.801	-2.61
213.021	-7.83
213.241	10.71
213.461	9.72
213.68	13.84
213.9	2.51
214.12	17.37
214.339	43.53
214.559	45.61
214.779	64.19
214.998	66.6
215.218	55.89
215.438	63.49
215.657	69.82
215.877	61.15
216.096	69.36
216.316	84.25
216.535	67.52
216.755	73.4
216.974	81.58
217.194	90.37
217.413	83.43
217.633	80.45
217.852	58.78
218.072	44.23
218.291	23.55
218.511	16.41
218.73	21.43
218.95	31.69
219.169	43.89
219.389	52.19
219.608	69.22
219.827	83.94
220.047	64.03
220.266	53.01
220.485	55.33
220.705	46.98
220.924	44.47
221.143	40.5
221.363	41.09
221.582	35.33
221.801	37.82
222.021	41.9
222.24	50.76
222.459	42.66
222.678	55.47
222.897	49.35
223.117	54.15
223.336	50.7
223.555	26.67
223.774	15.73
223.993	18.3
224.213	17.03
224.432	29.19
224.651	47.89
224.87	53.02
225.089	40.69
225.308	29.56
225.527	28.8
225.746	34.89
225.965	32.91
226.184	49.72
226.404	46.92
226.623	52.69
226.842	45.23
227.061	24.69
227.28	30.55
227.499	48.29
227.718	50.12
227.936	55.86
228.155	69.86
228.374	66.34
228.593	66.86
228.812	60.19
229.031	50.41
229.25	67.33
229.469	60.27
229.688	43.89
229.907	35.42
230.125	65.47
230.344	37.31
230.563	49.79
230.782	53.06
231.001	50.84
231.22	39.24
231.438	26.46
231.657	16.87
231.876	13.53
232.095	20.93
232.313	30.44
232.532	48.61
232.751	41.11
232.969	44.97
233.188	59.15
233.407	57.9
233.625	64.7
233.844	55.48
234.063	58.3
234.281	42.98
234.5	34.09
234.719	39.19
234.937	32.39
235.156	33.84
235.374	40.21
235.593	40.6
235.811	15.73
236.03	26.46
236.249	20.83
236.467	27.88
236.686	38.84
236.904	38.32
237.123	41.11
237.341	36.43
237.559	29.22
237.778	30.88
237.996	32.6
238.215	27.78
238.433	38.85
238.652	37.35
238.87	30.87
239.088	35.01
239.307	39.11
239.525	30.57
239.743	13.56
239.962	9.15
240.18	18.62
240.398	18.13
240.617	24.7
240.835	48.77
241.053	70.2
241.271	81.31
241.49	82.19
241.708	90.77
241.926	61.05
242.144	47.42
242.363	16.86
242.581	28.91
242.799	3.05
243.017	-2.41
243.235	11.05
243.453	41.33
243.672	54.21
243.89	56.51
244.108	74.51
244.326	65.68
244.544	55.08
244.762	45.07
244.98	66.33
245.198	54.68
245.416	47.9
245.634	63.57
245.852	74.97
246.07	58.17
246.288	58.24
246.506	58.8
246.724	54.67
246.942	46.18
247.16	53.13
247.378	47.49
247.596	55.97
247.814	39.59
248.032	29.95
248.25	24.51
248.468	51.91
248.685	46.42
248.903	49.05
249.121	63.31
249.339	59.2
249.557	45.85
249.775	12.17
249.992	9.89
250.21	11.08
250.428	-2.93
250.646	-19.16
250.863	-8.76
251.081	6.87
251.299	-6.2
251.517	0.19
251.734	36.45
251.952	57.06
252.17	42.42
252.387	44.65
252.605	77.77
252.823	41.04
253.04	64.1
253.258	80.53
253.475	75.9
253.693	68.47
253.911	82.89
254.128	57.95
254.346	41.65
254.563	38.63
254.781	32.04
254.998	38.24
255.216	11.99
255.433	21.75
255.651	42.43
255.868	31.16
256.086	14.28
256.303	29.6
256.521	42.35
256.738	39.34
256.956	48.84
257.173	49.01
257.39	59.07
257.608	54.83
257.825	60.06
258.043	47.56
258.26	57
258.477	48.54
258.695	44.49
258.912	35.57
259.129	49.32
259.346	46.44
259.564	58.3
259.781	91.94
259.998	75.64
260.216	83.15
260.433	78.97
260.65	69.95
260.867	51.73
261.084	55.17
261.302	28.73
261.519	32.03
261.736	17.36
261.953	17.3
262.17	21.48
262.387	29.4
262.604	34.85
262.822	57.76
263.039	55.07
263.256	56.02
263.473	64.28
263.69	62.72
263.907	35.07
264.124	39.79
264.341	44.83
264.558	54.7
264.775	52.17
264.992	53.46
265.209	46.96
265.426	51.39
265.643	43.87
265.86	55.33
266.077	53.17
266.294	51.03
266.51	36
266.727	26.98
266.944	8.94
267.161	17.58
267.378	10.18
267.595	39.54
267.812	46.93
268.028	69.61
268.245	77.49
268.462	98.6
268.679	69.18
268.896	58.34
269.112	43.5
269.329	39.86
269.546	39.8
269.763	27.45
269.979	26.93
270.196	35.06
270.413	42.54
270.629	48.06
270.846	78.79
271.063	70.61
271.279	81.54
271.496	74.82
271.712	65.86
271.929	44.49
272.146	13.75
272.362	21.08
272.579	16.41
272.795	27.6
273.012	28.05
273.228	51.71
273.445	48.58
273.661	55.92
273.878	46.25
274.094	44.63
274.311	50.38
274.527	39.96
274.744	26.7
274.96	15.44
275.177	9.18
275.393	-15.32
275.609	5.89
275.826	20.45
276.042	24.14
276.259	39.1
276.475	41.09
276.691	29.08
276.908	21.33
277.124	20.47
277.34	25.33
277.557	19.38
277.773	21.51
277.989	39.64
278.205	40.84
278.422	36.04
278.638	42.09
278.854	50.22
279.07	42.94
279.286	55.51
279.503	41.94
279.719	50.45
279.935	40.81
280.151	51.96
280.367	48.8
280.583	55.74
280.799	46.33
281.016	51.98
281.232	38.02
281.448	28.01
281.664	24.35
281.88	29.02
282.096	22.12
282.312	15.21
282.528	25.96
282.744	23.91
282.96	27.44
283.176	48.92
283.392	60.5
283.608	89.89
283.824	92.31
284.04	56.94
284.256	55.94
284.471	57.36
284.687	48.79
284.903	36.8
285.119	61.72
285.335	36.4
285.551	27.1
285.767	16.78
285.982	5.6
286.198	2.54
286.414	6.88
286.63	19.57
286.846	26.2
287.061	26.64
287.277	27.49
287.493	46.22
287.709	34.5
287.924	35.34
288.14	52.83
288.356	65.19
288.571	61.57
288.787	61.57
289.003	67.52
289.218	59.17
289.434	50.51
289.65	54.52
289.865	44.99
290.081	47.18
290.296	40.02
290.512	41.68
290.727	39.57
290.943	61.9
291.159	68.49
291.374	71.92
291.59	53.2
291.805	36.62
292.021	27.75
292.236	17.73
292.451	13
292.667	18.77
292.882	23.18
293.098	21.73
293.313	25.21
293.529	42.28
293.744	35.23
293.959	39.55
294.175	49.6
294.39	48.01
294.605	36.47
294.821	33.02
295.036	32.2
295.251	29.52
295.467	25.33
295.682	16.97
295.897	35.91
296.112	52.76
296.328	51.96
296.543	53.93
296.758	58.04
296.973	56.1
297.188	46.5
297.404	36.99
297.619	42.99
297.834	35.68
298.049	29.84
298.264	26.8
298.479	29.28
298.694	16.34
298.909	22
299.125	27.06
299.34	21.53
299.555	26.56
299.77	30.25
299.985	31.77
300.2	30.82
300.415	41.69
300.63	35.26
300.845	31.69
301.06	52.62
301.275	55.11
301.49	37.58
301.704	41.05
301.919	40.66
302.134	34.36
302.349	35.92
302.564	39.27
302.779	32.19
302.994	37.32
303.209	33.75
303.423	28.14
303.638	19.31
303.853	26.46
304.068	37.87
304.283	37.98
304.497	39.5
304.712	49.22
304.927	56.62
305.142	52.91
305.356	47.58
305.571	66.55
305.786	59.59
306	67.11
306.215	64.72
306.43	78.82
306.644	66.31
306.859	70.73
307.074	74.51
307.288	85.4
307.503	74.63
307.717	72.85
307.932	73.19
308.147	69.56
308.361	46.39
308.576	37.87
308.79	34.23
309.005	38.39
309.219	23.49
309.434	28.65
309.648	28.28
309.863	34.3
310.077	23.72
310.292	32.28
310.506	22.38
310.72	31.47
310.935	20.78
311.149	32.16
311.364	0.24
311.578	30.6
311.792	25.82
312.007	23.63
312.221	31.8
312.435	33.73
312.649	37.47
312.864	45.21
313.078	37.28
313.292	37.1
313.507	49.16
313.721	59.13
313.935	39.06
314.149	51.08
314.363	46.04
314.578	42.02
314.792	34.4
315.006	46.75
315.22	44.6
315.434	41.77
315.648	45.07
315.862	28.44
316.077	35.79
316.291	39.19
316.505	34.69
316.719	32.81
316.933	40.49
317.147	14.38
317.361	17.86
317.575	19.58
317.789	12.74
318.003	20.67
318.217	39.47
318.431	45.41
318.645	52.99
318.859	74.11
319.073	65.45
319.287	52.59
319.5	39.52
319.714	24.08
319.928	24.29
320.142	15.73
320.356	44.86
320.57	60.77
320.784	72.45
320.997	78.4
321.211	81.14
321.425	61.72
321.639	36.87
321.853	24.73
322.066	0.8
322.28	-3.36
322.494	9.57
322.707	28.19
322.921	31.52
323.135	37.03
323.349	52.55
323.562	56.3
323.776	56.53
323.989	39.45
324.203	46.39
324.417	24.9
324.63	25.37
324.844	25.65
325.057	42.61
325.271	40.94
325.485	39.23
325.698	42.88
325.912	56.64
326.125	65.83
326.339	62
326.552	61.25
326.766	64.59
326.979	47.72
327.193	39.73
327.406	51.64
327.619	46.3
327.833	41
328.046	46.03
328.26	38.73
328.473	13.72
328.686	34.18
328.9	31.15
329.113	27.36
329.326	25.77
329.54	53.47
329.753	50.45
329.966	53.24
330.179	33.26
330.393	43.98
330.606	26.14
330.819	15.31
331.032	0.51
331.246	23.13
331.459	15.42
331.672	23.59
331.885	20.03
332.098	49.39
332.311	49.27
332.525	53.98
332.738	43.05
332.951	60.95
333.164	45.18
333.377	43.33
333.59	37.4
333.803	42.94
334.016	20.83
334.229	16.24
334.442	29.76
334.655	46.79
334.868	48.06
335.081	57.12
335.294	63.22
335.507	58.36
335.72	56.99
335.933	36.9
336.146	29.7
336.359	31.1
336.572	38.53
336.785	12.27
336.997	27.62
337.21	32.56
337.423	26.86
337.636	4.52
337.849	10.37
338.062	25.52
338.274	27.22
338.487	35.41
338.7	30.13
338.913	32.16
339.125	26.26
339.338	22.9
339.551	21.45
339.763	30.77
339.976	29.35
340.189	19.68
340.402	8.13
340.614	1.1
340.827	16.81
341.039	16.96
341.252	22.13
341.465	20.64
341.677	30.04
341.89	24.54
342.102	48.78
342.315	42.01
342.527	49.82
342.74	52.92
342.952	40.61
343.165	31.99
343.377	38.81
343.59	39.57
343.802	31.85
344.015	45.19
344.227	44.24
344.44	26.57
344.652	23.92
344.864	26.79
345.077	19.93
345.289	17.61
345.502	25.97
345.714	29.89
345.926	24.42
346.139	30.08
346.351	26.89
346.563	28.51
346.775	24.88
346.988	23.46
347.2	18.03
347.412	30.57
347.624	19.73
347.837	13.05
348.049	26.77
348.261	21.9
348.473	11.57
348.685	23.86
348.897	30.26
349.11	27.12
349.322	34.16
349.534	38.36
349.746	40.41
349.958	49.43
350.17	54.66
350.382	50.98
350.594	37.48
350.806	39.06
351.018	29.75
351.23	20.75
351.442	13.69
351.654	49.95
351.866	31.24
352.078	32.94
352.29	44.73
352.502	47.58
352.714	42.73
352.926	45.66
353.138	54.48
353.35	44.9
353.561	57.66
353.773	47.7
353.985	49.95
354.197	42.58
354.409	51.03
354.621	32.22
354.832	44.76
355.044	40.82
355.256	48.18
355.468	47.83
355.679	52.86
355.891	58.46
356.103	75.85
356.314	61.49
356.526	57.47
356.738	59.68
356.949	44.9
357.161	41.92
357.373	41.28
357.584	35.76
357.796	36.61
358.008	36.78
358.219	34.31
358.431	34.21
358.642	33.03
358.854	27.34
359.065	28.01
359.277	33.8
359.488	42.09
359.7	44.38
359.911	55.79
360.123	50.35
360.334	38.96
360.546	25.33
360.757	29.81
360.969	22.83
361.18	36.1
361.391	32.45
361.603	35.94
361.814	32.87
362.025	45.34
362.237	38.88
362.448	42.04
362.659	30.64
362.871	34.66
363.082	21.53
363.293	28.06
363.504	34.83
363.716	45.11
363.927	22.26
364.138	31.57
364.349	22.01
364.56	11.3
364.772	7.69
364.983	33.56
365.194	27.24
365.405	31.08
365.616	26.38
365.827	31.76
366.038	27.57
366.25	32.54
366.461	29.7
366.672	34.53
366.883	27.57
367.094	33.89
367.305	27.99
367.516	25.23
367.727	41.35
367.938	43.41
368.149	44.76
368.36	57.77
368.571	37.61
368.781	38.14
368.992	44.32
369.203	28.8
369.414	17.5
369.625	25.54
369.836	13.99
370.047	19.81
370.258	26.53
370.468	26.71
370.679	21.49
370.89	19.92
371.101	1.35
371.312	4.53
371.522	10.62
371.733	37.32
371.944	44.34
372.155	46.66
372.365	42.23
372.576	33
372.787	21.43
372.997	23.91
373.208	16.94
373.419	26.2
373.629	32.59
373.84	30.01
374.05	19.56
374.261	26.91
374.472	24.22
374.682	20.4
374.893	28.05
375.103	40.3
375.314	47.3
375.524	50.53
375.735	45.89
375.945	38.65
376.156	26.76
376.366	24.91
376.577	16.68
376.787	20.16
376.997	18.93
377.208	19.41
377.418	20.61
377.629	23.05
377.839	30.63
378.049	37.47
378.26	45.93
378.47	46.92
378.68	61
378.89	57.64
379.101	38.9
379.311	36.58
379.521	26.26
379.732	19.37
379.942	14.95
380.152	18.88
380.362	22.16
380.572	19.39
380.783	22.47
380.993	18.79
381.203	23.11
381.413	10.87
381.623	16.39
381.833	9.96
382.043	12.74
382.253	11.94
382.463	11.09
382.674	17.33
382.884	13.53
383.094	11.82
383.304	15.46
383.514	23.98
383.724	21.49
383.934	20.42
384.144	17.5
384.353	16.49
384.563	15.22
384.773	17.67
384.983	15.72
385.193	8.56
385.403	7.27
385.613	6.93
385.823	3.46
386.033	11.73
386.242	19.51
386.452	14.69
386.662	20.43
386.872	20.06
387.082	15.06
387.291	9.7
387.501	13.66
387.711	7.39
387.921	8.15
388.13	11.33
388.34	11.72
388.55	10.35
388.759	9.53
388.969	11.46
389.179	11.06
389.388	14.19
389.598	15.31
389.807	13.64
390.017	11.19
390.227	9.89
390.436	8.16
390.646	6.26
390.855	5.37
391.065	2.54
391.274	1.36
391.484	1.7
391.693	3.09
391.903	3.72
392.112	5.68
392.322	6.02
392.531	5.68
392.74	4.3
392.95	4.46
393.159	5.27
393.369	4.28
393.578	4.17
393.787	3.51
393.997	2.99
394.206	3.06
394.415	3.62
394.625	4.46
394.834	4.45
395.043	5.08
395.252	4.42
395.462	5.02
395.671	4.19
395.88	5.23
396.089	5.48
396.298	5.67
396.508	5
396.717	5.63
396.926	5.31
397.135	4.37
397.344	3.66
397.553	4.18
397.762	3.41
397.971	2.87
398.181	3.18
398.39	2.99
398.599	2.61
398.808	3.06
399.017	3.49
399.226	3.43
399.435	3.9
399.644	4.17
399.853	3.95
400.062	4.02
400.27	3.69
400.479	3.16
400.688	2.93
400.897	3.05
401.106	3.05
401.315	3.68
401.524	4
401.733	3.83
401.941	3.8
402.15	3.51
402.359	3.21
402.568	2.96
402.777	3.04
402.985	2.82
403.194	3.06
403.403	3.14
403.612	3.17
403.82	3
404.029	3.08
404.238	2.89
404.446	2.83
404.655	2.9
404.864	3.13
405.072	3.21
405.281	3.23
405.489	3.03
405.698	3.06
405.906	3.02
406.115	2.83
406.324	2.74
406.532	2.76
406.741	2.73
406.949	2.68
407.158	2.55
407.366	2.5
407.574	2.61
407.783	2.53
407.991	2.51
408.2	2.82
408.408	2.96
408.617	2.94
408.825	2.97
409.033	2.91
409.242	2.76
409.45	2.75
409.658	2.77
409.867	2.73
410.075	2.68
410.283	2.66
410.491	2.55
410.7	2.37
410.908	2.36
411.116	2.52
411.324	2.44
411.533	2.39
411.741	2.36
411.949	2.41
412.157	2.36
412.365	2.6
412.573	2.6
412.781	2.65
412.99	2.69
413.198	2.69
413.406	2.58
413.614	2.76
413.822	2.8
414.03	2.61
414.238	2.51
414.446	2.44
414.654	2.33
414.862	2.42
415.07	2.47
415.278	2.47
415.486	2.43
415.694	2.3
415.902	2.26
416.109	2.37
416.317	2.58
416.525	2.48
416.733	2.58
416.941	2.61
417.149	2.46
417.357	2.32
417.564	2.37
417.772	2.32
417.98	2.34
418.188	2.57
418.395	2.42
418.603	2.58
418.811	2.71
419.019	2.47
419.226	2.37
419.434	2.67
419.642	2.67
419.849	2.49
420.057	2.61
420.265	2.71
420.472	2.38
420.68	2.33
420.887	2.38
421.095	2.36
421.302	2.23
421.51	2.35
421.717	2.36
421.925	2.32
422.132	2.29
422.34	2.25
422.547	2.18
422.755	2.19
422.962	2.25
423.17	2.46
423.377	2.56
423.585	2.77
423.792	2.76
423.999	2.66
424.207	2.53
424.414	2.39
424.621	2.31
424.829	2.13
425.036	2.29
425.243	2.09
425.451	2.02
425.658	1.9
425.865	2.23
426.072	2.13
426.28	2.19
426.487	2.34
426.694	2.44
426.901	2.24
427.108	2.14
427.315	2.18
427.523	2.11
427.73	1.92
427.937	1.86
428.144	2.1
428.351	1.96
428.558	2.09
428.765	2.09
428.972	2.14
429.179	1.97
429.386	2
429.593	1.94
429.8	2.02
430.007	2
430.214	1.99
430.421	2.06
430.628	2.04
430.835	2.13
431.042	2
431.249	2.14
431.456	2.22
431.662	2.24
431.869	2.24
432.076	2.34
432.283	2.21
432.49	2.17
432.697	2.15
432.903	2.16
433.11	2.43
433.317	2.43
433.524	2.36
433.73	2.34
433.937	2.24
434.144	2.03
434.35	2.1
434.557	2.23
434.764	2.26
434.97	2.22
435.177	2.34
435.384	2.21
435.59	2.12
435.797	2
436.003	2.16
436.21	2.02
436.416	2.11
436.623	2.07
436.829	2.09
437.036	2.01
437.242	1.96
437.449	1.96
437.655	2.03
437.862	2.11
438.068	2.03
438.275	2.2
438.481	2.15
438.687	2.14
438.894	2.24
439.1	2.31
439.307	2.13
439.513	2.15
439.719	2.19
439.926	2.03
440.132	2.12
440.338	2.15
440.544	2.12
440.751	2.04
440.957	2.14
441.163	1.99
441.369	1.98
441.575	1.99
441.782	2.08
441.988	2.04
442.194	2.06
442.4	2.2
442.606	2.18
442.812	2.15
443.018	2.07
443.224	2.07
443.431	1.96
443.637	2.07
443.843	2.02
444.049	2.13
444.255	2.07
444.461	2.01
444.667	1.93
444.873	1.94
445.079	1.91
445.284	1.92
445.49	1.95
445.696	1.97
445.902	1.95
446.108	1.9
446.314	1.9
446.52	2.02
446.726	1.99
446.931	2.02
447.137	1.94
447.343	1.92
447.549	1.81
447.755	1.82
447.96	1.87
448.166	1.93
448.372	2.07
448.578	2.09
448.783	2.11
448.989	2.1
449.195	2.04
449.4	1.99
449.606	1.92
449.812	1.78
450.017	1.77
450.223	1.75
450.428	1.71
450.634	1.7
450.84	1.81
451.045	1.88
451.251	1.97
451.456	1.94
451.662	2.1
451.867	2.18
452.073	2.06
452.278	1.97
452.483	1.97
452.689	1.92
452.894	1.84
453.1	1.84
453.305	1.95
453.51	1.98
453.716	1.88
453.921	2.02
454.127	2.04
454.332	2.03
454.537	2.05
454.742	2.02
454.948	1.8
455.153	1.89
455.358	1.8
455.563	1.75
455.769	1.78
455.974	1.86
456.179	1.77
456.384	1.73
456.589	1.82
456.795	1.78
457	1.76
457.205	1.65
457.41	1.62
457.615	1.47
457.82	1.53
458.025	1.51
458.23	1.6
458.435	1.69
458.64	1.59
458.845	1.56
459.05	1.51
459.255	1.45
459.46	1.49
459.665	1.63
459.87	1.62
460.075	1.77
460.28	1.83
460.485	1.8
460.69	1.76
460.895	1.84
461.099	1.85
461.304	1.84
461.509	1.86
461.714	1.93
461.919	1.94
462.123	1.87
462.328	1.86
462.533	1.78
462.738	1.8
462.942	1.74
463.147	1.71
463.352	1.71
463.556	1.85
463.761	1.73
463.966	1.66
464.17	1.66
464.375	1.68
464.58	1.61
464.784	1.65
464.989	1.79
465.193	1.77
465.398	1.78
465.602	1.8
465.807	1.85
466.011	1.71
466.216	1.76
466.42	1.78
466.625	1.71
466.829	1.7
467.034	1.84
467.238	1.85
467.443	1.9
467.647	1.9
467.851	1.92
468.056	1.9
468.26	1.94
468.464	1.88
468.669	1.9
