Data from Ofav_PP_Phys_358_Reflection_3.txt Node
Date: Tue Jul 27 19:07:03 EDT 2021
User: USUARIO
Spectrometer: FLMT01687
Trigger mode: 0
Integration Time (sec): 8.500000E-1
Scans to average: 2
Electric dark correction enabled: true
Nonlinearity correction enabled: false
Boxcar width: 2
XAxis mode: Wavelengths
Number of Pixels in Spectrum: 3648
>>>>>Begin Spectral Data<<<<<
179.494	-1402.22
179.716	-514.52
179.937	-354.89
180.158	-280.44
180.38	-341.19
180.601	-312.81
180.823	26.73
181.044	26.35
181.265	31.01
181.486	12.76
181.708	-33.33
181.929	82.45
182.15	34.28
182.372	-22.28
182.593	25.8
182.814	48.19
183.035	55.04
183.257	44.8
183.478	31.03
183.699	31.06
183.92	26.62
184.141	12.44
184.363	30.64
184.584	59.74
184.805	78.2
185.026	71.55
185.247	85.13
185.468	65.77
185.689	40.16
185.91	12.98
186.132	-17.26
186.353	-15.4
186.574	-20.78
186.795	-31.71
187.016	-28.4
187.237	-31.86
187.458	-39.91
187.679	-31.47
187.9	-35.89
188.121	-17.34
188.342	4.13
188.563	60.44
188.784	88.87
189.005	95.91
189.226	80.26
189.447	51.74
189.667	47.87
189.888	27.24
190.109	33.75
190.33	16.9
190.551	40.97
190.772	30.27
190.993	17.33
191.214	29.41
191.434	41.72
191.655	43.73
191.876	30.39
192.097	41.11
192.318	39.37
192.538	48.51
192.759	67.37
192.98	72.37
193.201	59.44
193.421	66.76
193.642	33.77
193.863	10.67
194.083	13.76
194.304	8.82
194.525	-22.64
194.745	-60.32
194.966	-115.78
195.187	-135.82
195.407	-90.75
195.628	-63.16
195.848	-6.2
196.069	44.29
196.29	71.68
196.51	76.1
196.731	60.26
196.951	55.82
197.172	40.41
197.392	14.3
197.613	2.11
197.833	11.11
198.054	5.14
198.274	-4.66
198.495	26.68
198.715	13.83
198.936	17.13
199.156	37.33
199.377	80.5
199.597	107.96
199.817	73.06
200.038	122.44
200.258	94.65
200.479	46.69
200.699	12.73
200.919	25.56
201.14	19.51
201.36	7.79
201.58	29.2
201.801	37.29
202.021	27.21
202.241	41.45
202.461	56.79
202.682	14.34
202.902	17.39
203.122	32.86
203.342	23.73
203.563	24.3
203.783	50.96
204.003	42.67
204.223	15.92
204.443	21.59
204.663	-6.08
204.884	-19.25
205.104	8.08
205.324	54.44
205.544	41.78
205.764	53.6
205.984	59.36
206.204	63.42
206.424	39.98
206.644	44.62
206.864	35.17
207.084	34.9
207.304	37.79
207.525	43.26
207.745	49.23
207.964	53.22
208.184	56.83
208.404	50.72
208.624	40.25
208.844	55.33
209.064	56.83
209.284	58.82
209.504	67.93
209.724	89.76
209.944	60.21
210.164	59.29
210.384	22.99
210.604	-19.54
210.823	10.89
211.043	25.04
211.263	36.08
211.483	55.65
211.703	60.19
211.922	44.54
212.142	65.8
212.362	31.52
212.582	10.16
212.801	28.58
213.021	41.86
213.241	1.38
213.461	1.65
213.68	-0.87
213.9	-37.39
214.12	-25.92
214.339	23.19
214.559	21.74
214.779	24.63
214.998	15.32
215.218	4.92
215.438	8.65
215.657	12.22
215.877	23.08
216.096	38.69
216.316	48.51
216.535	37.73
216.755	35.25
216.974	63.31
217.194	68.88
217.413	65.19
217.633	54.85
217.852	63.43
218.072	34.54
218.291	30.79
218.511	15.2
218.73	27.24
218.95	-0.13
219.169	1.13
219.389	-5.89
219.608	14.2
219.827	24.27
220.047	48.73
220.266	46.96
220.485	42.42
220.705	43.04
220.924	31.45
221.143	21.35
221.363	13.69
221.582	13.75
221.801	4.58
222.021	19.09
222.24	28.23
222.459	20.69
222.678	23.23
222.897	35.07
223.117	43.31
223.336	47.44
223.555	43.25
223.774	29.09
223.993	25.24
224.213	18.25
224.432	23.97
224.651	40.92
224.87	39
225.089	20.48
225.308	16.23
225.527	32
225.746	21.51
225.965	33.44
226.184	49.39
226.404	50.03
226.623	46.32
226.842	29.09
227.061	23.31
227.28	35.15
227.499	38.04
227.718	26
227.936	53.25
228.155	51.49
228.374	48.68
228.593	43.26
228.812	49.13
229.031	34.42
229.25	31.73
229.469	5.97
229.688	10.12
229.907	-18.12
230.125	7.95
230.344	12.14
230.563	40.62
230.782	46.43
231.001	49.43
231.22	49.08
231.438	43.73
231.657	24.43
231.876	20.29
232.095	17.61
232.313	15.01
232.532	4.57
232.751	10.09
232.969	17.83
233.188	18.06
233.407	22.33
233.625	46.65
233.844	42.13
234.063	31.55
234.281	42.22
234.5	26.79
234.719	25.59
234.937	18.95
235.156	24.91
235.374	17.99
235.593	22.72
235.811	26.13
236.03	29.07
236.249	10.05
236.467	10.71
236.686	10.81
236.904	10.73
237.123	8.54
237.341	20.59
237.559	25.4
237.778	38.18
237.996	49.38
238.215	61.67
238.433	67.49
238.652	64.36
238.87	60.94
239.088	39.88
239.307	33.89
239.525	4.22
239.743	-3.21
239.962	-7.93
240.18	4.74
240.398	-3.35
240.617	8.29
240.835	39.05
241.053	46.36
241.271	51.54
241.49	70.69
241.708	66.3
241.926	37.11
242.144	18.64
242.363	27.74
242.581	17.06
242.799	7.87
243.017	-21.07
243.235	-12.53
243.453	-19.54
243.672	-4
243.89	10.6
244.108	25.27
244.326	29.61
244.544	23.75
244.762	23.1
244.98	36.68
245.198	29.82
245.416	41.79
245.634	75.7
245.852	82.85
246.07	70.77
246.288	78.79
246.506	61.91
246.724	31.05
246.942	27.13
247.16	13.47
247.378	4.34
247.596	13.07
247.814	23.22
248.032	34.45
248.25	64.07
248.468	75.58
248.685	80.61
248.903	70.71
249.121	55.35
249.339	53.9
249.557	62.13
249.775	38.99
249.992	24.66
250.21	26.79
250.428	23.96
250.646	4.38
250.863	26.41
251.081	42.8
251.299	44.58
251.517	29.14
251.734	52.63
251.952	46.6
252.17	56.26
252.387	50.15
252.605	68.83
252.823	58.56
253.04	52.22
253.258	49.73
253.475	50.65
253.693	53.69
253.911	53.81
254.128	49.66
254.346	48.17
254.563	57.87
254.781	38.98
254.998	45.56
255.216	31.16
255.433	35.47
255.651	36.68
255.868	44.57
256.086	27.77
256.303	37.81
256.521	40.92
256.738	35.31
256.956	29.72
257.173	41.33
257.39	38.69
257.608	37.61
257.825	35.87
258.043	44.07
258.26	46.11
258.477	53.42
258.695	56.63
258.912	62.33
259.129	66.8
259.346	41.8
259.564	36
259.781	45.06
259.998	41.25
260.216	44.13
260.433	62.92
260.65	63.03
260.867	43.99
261.084	38.35
261.302	40.58
261.519	31.39
261.736	16.26
261.953	19.2
262.17	22.88
262.387	11.73
262.604	21.02
262.822	37.26
263.039	34.82
263.256	37.57
263.473	49.66
263.69	36.43
263.907	7.9
264.124	20.58
264.341	31.73
264.558	34.16
264.775	38.92
264.992	52.94
265.209	39.89
265.426	32.28
265.643	14.25
265.86	4.51
266.077	-5.42
266.294	5.03
266.51	25.55
266.727	40.77
266.944	46.24
267.161	10.66
267.378	-5.06
267.595	-7.42
267.812	1.77
268.028	0.24
268.245	46.18
268.462	43.58
268.679	35.18
268.896	12.7
269.112	5.64
269.329	21.84
269.546	32.06
269.763	19.64
269.979	42.24
270.196	50.35
270.413	44.29
270.629	50.65
270.846	73.78
271.063	60.34
271.279	58.45
271.496	51.92
271.712	32.78
271.929	-1.96
272.146	-17.63
272.362	11.76
272.579	11.45
272.795	19.13
273.012	21.52
273.228	17.28
273.445	8.99
273.661	16.45
273.878	15.46
274.094	6.08
274.311	19.18
274.527	26.18
274.744	21.48
274.96	16.53
275.177	20.56
275.393	13.7
275.609	12.45
275.826	5.55
276.042	10.22
276.259	29.9
276.475	25.23
276.691	27.45
276.908	25.82
277.124	35.5
277.34	48.26
277.557	59.23
277.773	44.88
277.989	55.33
278.205	46.59
278.422	20.34
278.638	17.67
278.854	41.62
279.07	44.03
279.286	32.23
279.503	31.93
279.719	35.07
279.935	24.16
280.151	10.84
280.367	24.18
280.583	29.42
280.799	30.85
281.016	22.8
281.232	26
281.448	21.23
281.664	24.41
281.88	14.57
282.096	26.04
282.312	27.34
282.528	17.49
282.744	13.01
282.96	13.99
283.176	35.07
283.392	36.38
283.608	59.7
283.824	51.16
284.04	30.8
284.256	20.52
284.471	26.24
284.687	23.2
284.903	22.07
285.119	46.77
285.335	37.77
285.551	30.46
285.767	35.59
285.982	25.12
286.198	19.15
286.414	14.25
286.63	21.24
286.846	-2.19
287.061	15.67
287.277	18.62
287.493	36.59
287.709	34.25
287.924	55.15
288.14	61.97
288.356	82.63
288.571	72.46
288.787	60.65
289.003	61.11
289.218	62.75
289.434	28.93
289.65	23.37
289.865	14.93
290.081	14.62
290.296	11.8
290.512	16.6
290.727	28.81
290.943	46.3
291.159	66.36
291.374	56.82
291.59	52.35
291.805	44.59
292.021	31.78
292.236	31.42
292.451	22.11
292.667	12.85
292.882	8.75
293.098	15.38
293.313	26.76
293.529	45
293.744	44.99
293.959	59.33
294.175	57.11
294.39	43.58
294.605	39.45
294.821	37.33
295.036	17.55
295.251	2.6
295.467	-6.07
295.682	-36.93
295.897	-5.56
296.112	9.18
296.328	38.8
296.543	47.23
296.758	54.68
296.973	62.5
297.188	65.38
297.404	49.26
297.619	47.16
297.834	44
298.049	32.95
298.264	26.39
298.479	35.24
298.694	24.1
298.909	22.55
299.125	22.56
299.34	6.25
299.555	11.25
299.77	17.24
299.985	18.74
300.2	7.9
300.415	14.78
300.63	1.15
300.845	5.21
301.06	7.79
301.275	13.79
301.49	15.48
301.704	10.72
301.919	14.56
302.134	19.33
302.349	33.58
302.564	39.68
302.779	41.32
302.994	43.2
303.209	35.72
303.423	20.62
303.638	9.02
303.853	10.66
304.068	27.3
304.283	32.88
304.497	45.01
304.712	46.31
304.927	36.53
305.142	30.32
305.356	10.94
305.571	-4.49
305.786	9.31
306	23.25
306.215	20.49
306.43	38.87
306.644	55.78
306.859	59.31
307.074	72.13
307.288	73.72
307.503	64.02
307.717	58.36
307.932	54.74
308.147	55.34
308.361	46.85
308.576	58.82
308.79	64.1
309.005	48.88
309.219	19.64
309.434	13.16
309.648	5.8
309.863	8.3
310.077	17.67
310.292	26.08
310.506	14.87
310.72	14.3
310.935	-9.52
311.149	-19.62
311.364	-20.14
311.578	14
311.792	12.59
312.007	18.05
312.221	21.29
312.435	33.65
312.649	30.48
312.864	33.93
313.078	26.02
313.292	45.57
313.507	25.1
313.721	44.88
313.935	29.24
314.149	38.57
314.363	27.35
314.578	25.43
314.792	20.71
315.006	32.52
315.22	23.94
315.434	36.17
315.648	22.83
315.862	5.05
316.077	6.99
316.291	19.96
316.505	16.93
316.719	46.8
316.933	71.8
317.147	52.03
317.361	42.02
317.575	23.66
317.789	-2.4
318.003	-32.07
318.217	-5.85
318.431	6.9
318.645	6.65
318.859	19.11
319.073	27.91
319.287	8.05
319.5	-12.54
319.714	-2.47
319.928	15.36
320.142	5.05
320.356	36.54
320.57	49.03
320.784	49.89
320.997	46.05
321.211	53.72
321.425	40.34
321.639	23.07
321.853	12.48
322.066	9.22
322.28	-3.3
322.494	-5.4
322.707	11.38
322.921	16.47
323.135	8.61
323.349	19.53
323.562	30.27
323.776	25.39
323.989	20.75
324.203	26.56
324.417	19.2
324.63	17.79
324.844	32.77
325.057	27.82
325.271	12.12
325.485	14.1
325.698	7.6
325.912	-20.47
326.125	4.89
326.339	30.54
326.552	26.45
326.766	37.99
326.979	52.64
327.193	48.66
327.406	29.66
327.619	39.37
327.833	28.47
328.046	38.36
328.26	30.83
328.473	29.94
328.686	28.64
328.9	26.53
329.113	10.65
329.326	-5.57
329.54	-2.53
329.753	-8.17
329.966	10.4
330.179	-10.93
330.393	15.6
330.606	2.02
330.819	7.28
331.032	-13.93
331.246	20.17
331.459	15.48
331.672	24.21
331.885	18.01
332.098	48.8
332.311	36.25
332.525	38.1
332.738	28.61
332.951	40.93
333.164	21.85
333.377	9.81
333.59	16.98
333.803	29.41
334.016	6.25
334.229	0.17
334.442	17.49
334.655	25.43
334.868	28.65
335.081	41.24
335.294	51.45
335.507	55.13
335.72	45.59
335.933	31.39
336.146	35.07
336.359	26.39
336.572	37.01
336.785	31.1
336.997	61.14
337.21	73.49
337.423	74.44
337.636	52.3
337.849	52.19
338.062	37.84
338.274	37.72
338.487	48.71
338.7	43.59
338.913	36.19
339.125	35.5
339.338	26
339.551	-4.14
339.763	-2.33
339.976	16.7
340.189	0.99
340.402	-12.65
340.614	-8.02
340.827	-3.91
341.039	-20.38
341.252	-18.62
341.465	-30.42
341.677	-13.65
341.89	-18.49
342.102	3.05
342.315	9.38
342.527	22.31
342.74	16
342.952	-1.04
343.165	3.7
343.377	4.63
343.59	-2.2
343.802	5.66
344.015	27.08
344.227	37.29
344.44	38.42
344.652	55.72
344.864	47.9
345.077	38.77
345.289	20.15
345.502	18.05
345.714	11.78
345.926	-6.4
346.139	-1.65
346.351	6.97
346.563	3.01
346.775	2.8
346.988	20.63
347.2	12.68
347.412	19.13
347.624	25.46
347.837	16.06
348.049	15.66
348.261	16.52
348.473	22.06
348.685	39.11
348.897	50.1
349.11	41.56
349.322	30.97
349.534	21.82
349.746	15.34
349.958	17.57
350.17	28.85
350.382	35.3
350.594	10.97
350.806	27.65
351.018	23.02
351.23	7.36
351.442	0.23
351.654	52.63
351.866	28.38
352.078	29.36
352.29	30.45
352.502	42.73
352.714	38.09
352.926	46.29
353.138	50.86
353.35	53.81
353.561	46.09
353.773	27.58
353.985	16.87
354.197	12.52
354.409	15.42
354.621	14.33
354.832	30.69
355.044	29.54
355.256	45.54
355.468	48.98
355.679	56.21
355.891	52.35
356.103	52.09
356.314	39.4
356.526	37.33
356.738	36.32
356.949	29.13
357.161	39.59
357.373	37.59
357.584	35.58
357.796	36.65
358.008	44.1
358.219	42.31
358.431	39.35
358.642	44.09
358.854	45.87
359.065	29.17
359.277	36.98
359.488	45.46
359.7	32.91
359.911	33.31
360.123	49.85
360.334	37.37
360.546	15.07
360.757	28.03
360.969	12.43
361.18	12.18
361.391	22.44
361.603	33.94
361.814	37.38
362.025	48.6
362.237	46.46
362.448	41.96
362.659	29.53
362.871	24.55
363.082	19.87
363.293	19.92
363.504	19.37
363.716	24.63
363.927	11.35
364.138	18.74
364.349	17.78
364.56	17.55
364.772	36.17
364.983	53.17
365.194	48.6
365.405	47.16
365.616	35.11
365.827	30.88
366.038	29.35
366.25	35.25
366.461	43.32
366.672	51.42
366.883	45.57
367.094	44.02
367.305	28.35
367.516	18.49
367.727	28.98
367.938	8.24
368.149	2.29
368.36	9.07
368.571	3.44
368.781	1.86
368.992	18.4
369.203	14.58
369.414	19.79
369.625	26.01
369.836	23.29
370.047	18.1
370.258	19.43
370.468	22.81
370.679	24.03
370.89	30.66
371.101	30.52
371.312	40.97
371.522	31.96
371.733	38.69
371.944	29.14
372.155	24.82
372.365	5.07
372.576	3.27
372.787	-2.96
372.997	0.13
373.208	1.27
373.419	5.19
373.629	15.77
373.84	16.88
374.05	26.63
374.261	26.75
374.472	40.52
374.682	32.02
374.893	32.35
375.103	27.36
375.314	35.51
375.524	36.74
375.735	39.54
375.945	34.43
376.156	27.92
376.366	29.24
376.577	17.34
376.787	14.52
376.997	14.51
377.208	19.03
377.418	18.45
377.629	26.79
377.839	44.24
378.049	44.64
378.26	36.72
378.47	28.58
378.68	39.09
378.89	26.34
379.101	23.14
379.311	19.87
379.521	22.23
379.732	14.71
379.942	22.13
380.152	19.89
380.362	33.67
380.572	33.28
380.783	24.73
380.993	18.61
381.203	23.54
381.413	17.7
381.623	19.81
381.833	22.52
382.043	26.12
382.253	23.51
382.463	25.91
382.674	33.32
382.884	25.8
383.094	17.92
383.304	23.15
383.514	15.05
383.724	10.43
383.934	13.39
384.144	8.15
384.353	6.25
384.563	10.92
384.773	10.51
384.983	11.21
385.193	18.34
385.403	24.53
385.613	27.25
385.823	24.04
386.033	24.45
386.242	27.35
386.452	14.5
386.662	17.38
386.872	19.21
387.082	15.13
387.291	4.7
387.501	8.25
387.711	1.36
387.921	1.49
388.13	8.09
388.34	12.31
388.55	14.27
388.759	16.23
388.969	15.1
389.179	14.72
389.388	18.9
389.598	20.2
389.807	18.68
390.017	17.41
390.227	16.98
390.436	15.89
390.646	14.19
390.855	13.94
391.065	12.06
391.274	11.45
391.484	8.85
391.693	9.01
391.903	10.36
392.112	13.57
392.322	12.45
392.531	12.87
392.74	12.15
392.95	11.56
393.159	11.44
393.369	11.8
393.578	13.11
393.787	12.84
393.997	12.03
394.206	13.78
394.415	14.25
394.625	13.51
394.834	13.4
395.043	14
395.252	12.82
395.462	12.49
395.671	11.86
395.88	13.15
396.089	13.62
396.298	12.83
396.508	12.45
396.717	13.06
396.926	12.39
397.135	11.82
397.344	11.47
397.553	12.09
397.762	11.48
397.971	11.36
398.181	11.13
398.39	11.2
398.599	10.93
398.808	11.26
399.017	11.54
399.226	11.92
399.435	12.22
399.644	12.5
399.853	12.72
400.062	13
400.27	12.49
400.479	12.2
400.688	12.13
400.897	11.82
401.106	11.55
401.315	12.1
401.524	12.3
401.733	11.99
401.941	12.08
402.15	11.91
402.359	11.65
402.568	11.55
402.777	11.34
402.985	11.29
403.194	11.53
403.403	11.52
403.612	11.57
403.82	11.69
404.029	11.75
404.238	11.64
404.446	11.74
404.655	11.74
404.864	11.83
405.072	11.92
405.281	11.78
405.489	11.63
405.698	11.63
405.906	11.68
406.115	11.28
406.324	11.19
406.532	10.96
406.741	11.02
406.949	11.06
407.158	11.18
407.366	11.15
407.574	11.36
407.783	11.2
407.991	11.06
408.2	10.98
408.408	11.11
408.617	11
408.825	10.95
409.033	11
409.242	11.04
409.45	10.93
409.658	11.05
409.867	11.01
410.075	10.79
410.283	10.76
410.491	10.7
410.7	10.49
410.908	10.5
411.116	10.57
411.324	10.45
411.533	10.45
411.741	10.32
411.949	10.23
412.157	10.34
412.365	10.58
412.573	10.49
412.781	10.52
412.99	10.6
413.198	10.45
413.406	10.36
413.614	10.51
413.822	10.62
414.03	10.65
414.238	10.63
414.446	10.5
414.654	10.4
414.862	10.37
415.07	10.19
415.278	10.08
415.486	10.14
415.694	9.98
415.902	9.91
416.109	9.94
416.317	10.07
416.525	10.03
416.733	10.1
416.941	10.24
417.149	10.18
417.357	10.22
417.564	10.11
417.772	10.06
417.98	9.94
418.188	10.06
418.395	9.87
418.603	9.85
418.811	9.91
419.019	9.93
419.226	10.03
419.434	10.23
419.642	10.39
419.849	10.33
420.057	10.19
420.265	10.07
420.472	9.84
420.68	9.51
420.887	9.55
421.095	9.53
421.302	9.24
421.51	9.24
421.717	9.38
421.925	9.26
422.132	9.47
422.34	9.65
422.547	9.62
422.755	9.74
422.962	9.78
423.17	9.62
423.377	9.68
423.585	9.76
423.792	9.7
423.999	9.57
424.207	9.63
424.414	9.5
424.621	9.27
424.829	9.06
425.036	9.13
425.243	9.09
425.451	8.95
425.658	9.08
425.865	9.38
426.072	9.43
426.28	9.34
426.487	9.44
426.694	9.41
426.901	9.12
427.108	9.21
427.315	9.18
427.523	9.12
427.73	8.96
427.937	9.03
428.144	8.96
428.351	8.92
428.558	9.11
428.765	9.25
428.972	9.27
429.179	9.15
429.386	9.4
429.593	9.22
429.8	9.2
430.007	9.18
430.214	9.21
430.421	9.24
430.628	9.32
430.835	9.45
431.042	9.54
431.249	9.61
431.456	9.57
431.662	9.69
431.869	9.68
432.076	9.54
432.283	9.49
432.49	9.4
432.697	9.3
432.903	9.3
433.11	9.51
433.317	9.49
433.524	9.5
433.73	9.54
433.937	9.38
434.144	9.26
434.35	9.27
434.557	9.14
434.764	9.04
434.97	9.04
435.177	9.12
435.384	9.03
435.59	9.24
435.797	9.24
436.003	9.5
436.21	9.35
436.416	9.43
436.623	9.29
436.829	9.16
437.036	8.99
437.242	9.02
437.449	8.97
437.655	9.03
437.862	9.13
438.068	9.08
438.275	9.15
438.481	9.21
438.687	9.23
438.894	9.19
439.1	9.22
439.307	9.18
439.513	9.22
439.719	9.31
439.926	9.43
440.132	9.57
440.338	9.49
440.544	9.42
440.751	9.3
440.957	9.35
441.163	9.29
441.369	9.25
441.575	9.23
441.782	9.28
441.988	9.16
442.194	9.19
442.4	9.45
442.606	9.49
442.812	9.49
443.018	9.51
443.224	9.49
443.431	9.36
443.637	9.37
443.843	9.21
444.049	9.24
444.255	9.12
444.461	9
444.667	8.92
444.873	9
445.079	8.96
445.284	9.03
445.49	9.08
445.696	9.25
445.902	9.34
446.108	9.37
446.314	9.37
446.52	9.46
446.726	9.4
446.931	9.4
447.137	9.35
447.343	9.23
447.549	9.13
447.755	9.09
447.96	9.09
448.166	9.26
448.372	9.44
448.578	9.56
448.783	9.55
448.989	9.6
449.195	9.4
449.4	9.4
449.606	9.38
449.812	9.49
450.017	9.43
450.223	9.46
450.428	9.46
450.634	9.35
450.84	9.35
451.045	9.31
451.251	9.36
451.456	9.29
451.662	9.29
451.867	9.32
452.073	9.36
452.278	9.31
452.483	9.32
452.689	9.44
452.894	9.35
453.1	9.28
453.305	9.3
453.51	9.28
453.716	9.24
453.921	9.31
454.127	9.4
454.332	9.41
454.537	9.46
454.742	9.39
454.948	9.29
455.153	9.36
455.358	9.37
455.563	9.3
455.769	9.29
455.974	9.31
456.179	9.24
456.384	9.06
456.589	9.19
456.795	9.24
457	9.32
457.205	9.21
457.41	9.39
457.615	9.31
457.82	9.3
458.025	9.16
458.23	9.23
458.435	9.16
458.64	9.09
458.845	9.14
459.05	9.18
459.255	9.28
459.46	9.34
459.665	9.38
459.87	9.34
460.075	9.44
460.28	9.37
460.485	9.35
460.69	9.38
460.895	9.49
461.099	9.44
461.304	9.46
461.509	9.45
461.714	9.5
461.919	9.48
462.123	9.47
462.328	9.45
462.533	9.47
462.738	9.55
462.942	9.6
463.147	9.7
463.352	9.6
463.556	9.68
463.761	9.51
463.966	9.37
464.17	9.36
464.375	9.55
464.58	9.44
464.784	9.53
464.989	9.68
465.193	9.62
465.398	9.67
465.602	9.84
465.807	9.82
466.011	9.78
466.216	9.71
466.42	9.71
466.625	9.63
466.829	9.64
467.034	9.7
