Data from Ofav_PP_Phys_369_Reflection_1.txt Node
Date: Tue Jul 27 19:07:20 EDT 2021
User: USUARIO
Spectrometer: FLMT01687
Trigger mode: 0
Integration Time (sec): 8.500000E-1
Scans to average: 2
Electric dark correction enabled: true
Nonlinearity correction enabled: false
Boxcar width: 2
XAxis mode: Wavelengths
Number of Pixels in Spectrum: 3648
>>>>>Begin Spectral Data<<<<<
179.494	-1600
179.716	-514.52
179.937	-348.03
180.158	-292.07
180.38	-368.56
180.601	-297.51
180.823	121.87
181.044	78.46
181.265	99.5
181.486	141.56
181.708	43.06
181.929	100.69
182.15	47.87
182.372	140.93
182.593	162.05
182.814	100.93
183.035	87.43
183.257	71.05
183.478	46.67
183.699	35.8
183.92	38.02
184.141	38.19
184.363	52.45
184.584	85.81
184.805	110.09
185.026	86.1
185.247	87.26
185.468	62.52
185.689	35.99
185.91	-6.09
186.132	-6.79
186.353	-0.93
186.574	-2.6
186.795	-4.87
187.016	11.34
187.237	8.35
187.458	25.55
187.679	37.11
187.9	27.18
188.121	29.72
188.342	37.07
188.563	42.25
188.784	57.64
189.005	69.05
189.226	66.27
189.447	67.84
189.667	53.89
189.888	55.19
190.109	58.51
190.33	72.55
190.551	48.32
190.772	40.66
190.993	31.54
191.214	19.53
191.434	11.06
191.655	29.99
191.876	35.28
192.097	40.32
192.318	52.77
192.538	80.27
192.759	72.76
192.98	66.39
193.201	66.8
193.421	79.02
193.642	44.5
193.863	27.48
194.083	30.05
194.304	7.88
194.525	-3
194.745	-55.25
194.966	-80.22
195.187	-105.63
195.407	-65.78
195.628	-52.43
195.848	39.37
196.069	38.45
196.29	76.02
196.51	66.99
196.731	64.22
196.951	47.74
197.172	44.96
197.392	45.18
197.613	43.41
197.833	36.21
198.054	49.26
198.274	36.38
198.495	43.07
198.715	31.85
198.936	21.68
199.156	39.28
199.377	75.96
199.597	73.51
199.817	53.88
200.038	30.95
200.258	-3.57
200.479	-4.02
200.699	6.33
200.919	3.45
201.14	13.5
201.36	6.45
201.58	29.79
201.801	20.49
202.021	31.83
202.241	32.05
202.461	38.89
202.682	16.7
202.902	19.92
203.122	37.23
203.342	61.49
203.563	51.64
203.783	53.39
204.003	45.27
204.223	39
204.443	14.5
204.663	-16.2
204.884	-1.21
205.104	23.04
205.324	42.46
205.544	49.87
205.764	26.87
205.984	3.33
206.204	-21.34
206.424	-74.18
206.644	-41.6
206.864	-3.01
207.084	9.01
207.304	15.38
207.525	14.68
207.745	21.02
207.964	38.18
208.184	35.88
208.404	28.93
208.624	46.6
208.844	67.75
209.064	61.31
209.284	67.38
209.504	82.24
209.724	99.93
209.944	50.79
210.164	79.24
210.384	124.78
210.604	92.61
210.823	51.53
211.043	49.58
211.263	44.38
211.483	43.31
211.703	48.8
211.922	69.12
212.142	103.6
212.362	52.76
212.582	44.92
212.801	43.54
213.021	15.83
213.241	17.57
213.461	24.59
213.68	26.84
213.9	-0.64
214.12	25.45
214.339	33.69
214.559	36.59
214.779	34.28
214.998	35.3
215.218	21.43
215.438	19.59
215.657	29.6
215.877	19.31
216.096	20.12
216.316	44.01
216.535	45.88
216.755	59.1
216.974	94.53
217.194	105.35
217.413	75.72
217.633	82.72
217.852	60.95
218.072	34.33
218.291	24.94
218.511	22.73
218.73	13.21
218.95	9.75
219.169	14.46
219.389	5.73
219.608	31.4
219.827	48.4
220.047	42.98
220.266	59.17
220.485	61.34
220.705	65.62
220.924	61.19
221.143	52.54
221.363	33.03
221.582	35.77
221.801	13.01
222.021	20.81
222.24	34.61
222.459	46.68
222.678	63.58
222.897	66.7
223.117	83.1
223.336	77.15
223.555	54.71
223.774	25.28
223.993	25.99
224.213	21.34
224.432	49.87
224.651	64.58
224.87	68.3
225.089	53.86
225.308	46.87
225.527	38.7
225.746	30.93
225.965	40.73
226.184	46.56
226.404	32.53
226.623	24.93
226.842	27.44
227.061	24.31
227.28	35.09
227.499	51.08
227.718	41.74
227.936	29.09
228.155	37.6
228.374	42.46
228.593	45.13
228.812	57.69
229.031	48.77
229.25	50.34
229.469	22.4
229.688	-12.92
229.907	-44.41
230.125	-4.54
230.344	-1.94
230.563	34.8
230.782	55.16
231.001	59.89
231.22	58.68
231.438	42.05
231.657	30.13
231.876	14.64
232.095	28.86
232.313	38.49
232.532	51.72
232.751	46.76
232.969	57.63
233.188	57
233.407	41.8
233.625	51.03
233.844	39.55
234.063	44.53
234.281	52.71
234.5	50.35
234.719	62.03
234.937	55.04
235.156	62.49
235.374	38.84
235.593	36.83
235.811	25.21
236.03	35.37
236.249	4.84
236.467	8.52
236.686	30.8
236.904	23.26
237.123	14.11
237.341	32.76
237.559	41.78
237.778	32.57
237.996	41.38
238.215	46.3
238.433	47.14
238.652	44.33
238.87	45.75
239.088	28.77
239.307	37.55
239.525	9.79
239.743	1.91
239.962	3.29
240.18	10.81
240.398	-7.3
240.617	2.06
240.835	11.61
241.053	5.02
241.271	-6.92
241.49	25.37
241.708	32.53
241.926	14.6
242.144	10.04
242.363	15.68
242.581	11.26
242.799	-5.55
243.017	-1.9
243.235	14.4
243.453	45.67
243.672	48.26
243.89	49.38
244.108	46.47
244.326	43.33
244.544	29.15
244.762	19.18
244.98	35.46
245.198	19.14
245.416	25.9
245.634	40.36
245.852	58.14
246.07	83.95
246.288	98.85
246.506	89.23
246.724	77.15
246.942	72.16
247.16	47.1
247.378	30.76
247.596	31.94
247.814	34.09
248.032	18.26
248.25	13.69
248.468	34.35
248.685	32.39
248.903	23.55
249.121	26.75
249.339	32.31
249.557	32.59
249.775	18.12
249.992	20.98
250.21	19.24
250.428	11.11
250.646	-13.71
250.863	15.36
251.081	23.53
251.299	15.63
251.517	29.31
251.734	47.59
251.952	11.63
252.17	3.81
252.387	-6.63
252.605	25.94
252.823	25.99
253.04	43.69
253.258	51
253.475	60.37
253.693	62.69
253.911	86.7
254.128	74.66
254.346	77.82
254.563	68.25
254.781	43.35
254.998	24.52
255.216	-4.15
255.433	3.87
255.651	24.42
255.868	33.44
256.086	28.26
256.303	47.54
256.521	39.25
256.738	33.23
256.956	27.72
257.173	36.06
257.39	39.52
257.608	43.06
257.825	50.44
258.043	51.82
258.26	55.34
258.477	45.83
258.695	39.55
258.912	34.85
259.129	36.25
259.346	9.67
259.564	30.28
259.781	58.17
259.998	35.49
260.216	51.41
260.433	57.32
260.65	53.95
260.867	42.4
261.084	57.12
261.302	30.45
261.519	38.33
261.736	29.08
261.953	32.81
262.17	31.31
262.387	27.49
262.604	40.08
262.822	50.13
263.039	48.23
263.256	51.29
263.473	75.24
263.69	71.33
263.907	44.61
264.124	46.83
264.341	51.16
264.558	38.31
264.775	12.4
264.992	35.81
265.209	28.49
265.426	22.79
265.643	26.37
265.86	25.66
266.077	20.41
266.294	28.11
266.51	31.82
266.727	22.53
266.944	20.3
267.161	-35.79
267.378	-65.54
267.595	-65.08
267.812	-46.61
268.028	-20.14
268.245	54.24
268.462	79.83
268.679	68.79
268.896	68.72
269.112	36.53
269.329	44.57
269.546	56.39
269.763	41.01
269.979	22.1
270.196	42.53
270.413	34.78
270.629	30.05
270.846	50.31
271.063	49.68
271.279	39.44
271.496	39.64
271.712	17.13
271.929	-3.54
272.146	-23.71
272.362	12.55
272.579	17.44
272.795	35.86
273.012	43.39
273.228	49.44
273.445	41.36
273.661	40.88
273.878	26.4
274.094	15.73
274.311	32.24
274.527	30.2
274.744	16.91
274.96	11.56
275.177	9.21
275.393	-3.64
275.609	12.96
275.826	26.17
276.042	34.17
276.259	49.98
276.475	45.84
276.691	21.87
276.908	18.99
277.124	18.65
277.34	17.94
277.557	-1.3
277.773	13.02
277.989	11.94
278.205	14.35
278.422	1.28
278.638	2.77
278.854	15.14
279.07	20.61
279.286	5.79
279.503	31.29
279.719	51.82
279.935	52.1
280.151	48.63
280.367	66.9
280.583	66.19
280.799	65.82
281.016	61.03
281.232	63.87
281.448	53.61
281.664	33.66
281.88	20.75
282.096	22.33
282.312	24.99
282.528	21.81
282.744	34.49
282.96	38.03
283.176	39.32
283.392	47.55
283.608	63.83
283.824	42.52
284.04	13.65
284.256	25.58
284.471	17.94
284.687	10.1
284.903	32.06
285.119	48.43
285.335	36.26
285.551	34.53
285.767	52.21
285.982	44.16
286.198	53.28
286.414	63.33
286.63	64.28
286.846	39.41
287.061	35.07
287.277	30.3
287.493	12.87
287.709	12.93
287.924	24.34
288.14	39.95
288.356	57.95
288.571	77.36
288.787	68.54
289.003	66.52
289.218	65.65
289.434	57.01
289.65	52.94
289.865	29.95
290.081	33.22
290.296	14.7
290.512	14.37
290.727	19.43
290.943	54.48
291.159	69.78
291.374	89.88
291.59	61.05
291.805	52.26
292.021	35.86
292.236	24.28
292.451	18.24
292.667	27.63
292.882	21.28
293.098	18.82
293.313	25.23
293.529	38.45
293.744	32.87
293.959	40.92
294.175	50.99
294.39	43.77
294.605	41.42
294.821	33.6
295.036	14.72
295.251	4.04
295.467	7
295.682	-12.69
295.897	4.99
296.112	21.73
296.328	13.05
296.543	32.14
296.758	32.32
296.973	37.37
297.188	41.18
297.404	34.02
297.619	30.75
297.834	43.85
298.049	33.89
298.264	33.55
298.479	33.24
298.694	37.26
298.909	19.89
299.125	31.89
299.34	22.88
299.555	45.35
299.77	30.77
299.985	31.67
300.2	34.56
300.415	49.89
300.63	34.55
300.845	55.81
301.06	53.52
301.275	46.37
301.49	48.6
301.704	24.3
301.919	23.47
302.134	43.23
302.349	34.34
302.564	20.43
302.779	18.41
302.994	14.91
303.209	7.35
303.423	-3.71
303.638	-5.7
303.853	10.18
304.068	10.07
304.283	7.31
304.497	8.45
304.712	29.5
304.927	26.18
305.142	32.81
305.356	23.01
305.571	42.63
305.786	32.42
306	28.01
306.215	27.68
306.43	32.19
306.644	44.09
306.859	42.68
307.074	56.14
307.288	48.37
307.503	56.67
307.717	37.24
307.932	25.69
308.147	24.08
308.361	22.66
308.576	13.13
308.79	19.1
309.005	21.16
309.219	16.82
309.434	17.98
309.648	17.91
309.863	15.42
310.077	23.32
310.292	19.41
310.506	14.83
310.72	28.16
310.935	21.19
311.149	15.2
311.364	59.22
311.578	47.54
311.792	28.75
312.007	40.44
312.221	36.71
312.435	26.08
312.649	37.35
312.864	33.71
313.078	1.53
313.292	10.66
313.507	20.83
313.721	44.02
313.935	46.06
314.149	59.43
314.363	52.97
314.578	41.5
314.792	27.61
315.006	31.18
315.22	18.11
315.434	11.02
315.648	17.42
315.862	8.73
316.077	-5.63
316.291	9.16
316.505	17.07
316.719	17.53
316.933	30.17
317.147	29.73
317.361	28.56
317.575	18.85
317.789	2.07
318.003	-0
318.217	14.72
318.431	1.2
318.645	14.25
318.859	38.71
319.073	29.6
319.287	33.89
319.5	39.55
319.714	14.73
319.928	6.16
320.142	5.75
320.356	14.3
320.57	27.66
320.784	49.37
320.997	55.58
321.211	59.5
321.425	52.94
321.639	32.11
321.853	24.06
322.066	13.3
322.28	-6.14
322.494	-15.9
322.707	-1.87
322.921	6.71
323.135	3.16
323.349	14.87
323.562	24.14
323.776	12.08
323.989	-10.96
324.203	-4.48
324.417	-17.56
324.63	1.63
324.844	18.77
325.057	35.01
325.271	35.52
325.485	37.89
325.698	39.46
325.912	32.68
326.125	38.41
326.339	45.5
326.552	46.02
326.766	29.84
326.979	29.82
327.193	20.88
327.406	20.28
327.619	17.1
327.833	25.18
328.046	40.72
328.26	37.61
328.473	30.65
328.686	37.3
328.9	45.23
329.113	41.25
329.326	47.62
329.54	45.73
329.753	28.44
329.966	10.6
330.179	8.92
330.393	15.55
330.606	11.41
330.819	21.03
331.032	7.17
331.246	14.81
331.459	10.34
331.672	18.24
331.885	14.6
332.098	46.33
332.311	55.49
332.525	56.59
332.738	37.71
332.951	44.97
333.164	24.1
333.377	2.68
333.59	6.93
333.803	10.23
334.016	-0
334.229	-4.31
334.442	7.41
334.655	19.05
334.868	34.59
335.081	28.38
335.294	41.07
335.507	42.56
335.72	30.07
335.933	13.62
336.146	15.55
336.359	8.4
336.572	13.01
336.785	6.62
336.997	24.29
337.21	60.28
337.423	67.91
337.636	51.66
337.849	34.47
338.062	17.72
338.274	11.5
338.487	19.2
338.7	18.92
338.913	28.76
339.125	34.85
339.338	26.46
339.551	8.92
339.763	29.01
339.976	33.5
340.189	29.01
340.402	21.59
340.614	14.03
340.827	-1.67
341.039	-22.21
341.252	-21.81
341.465	-32.18
341.677	-6.85
341.89	9.04
342.102	26.41
342.315	32.85
342.527	35.31
342.74	37.98
342.952	20.72
343.165	19.74
343.377	16.17
343.59	16.95
343.802	3.97
344.015	8.36
344.227	16.34
344.44	-9.39
344.652	-12.58
344.864	3.8
345.077	23.51
345.289	9.59
345.502	18.29
345.714	27.18
345.926	18.15
346.139	21.84
346.351	24.51
346.563	21.58
346.775	19.99
346.988	30.96
347.2	12.31
347.412	20.67
347.624	12.24
347.837	0.78
348.049	-10.69
348.261	3.48
348.473	1.61
348.685	19.02
348.897	27.62
349.11	24.11
349.322	20.51
349.534	24.76
349.746	31.96
349.958	34.17
350.17	55.27
350.382	53.98
350.594	30.33
350.806	34.43
351.018	27.77
351.23	16.01
351.442	3.15
351.654	38.14
351.866	14.02
352.078	19.29
352.29	22.61
352.502	41
352.714	40.01
352.926	48.12
353.138	53.9
353.35	42.96
353.561	41.34
353.773	37.38
353.985	29.37
354.197	32.08
354.409	39.37
354.621	33.73
354.832	46.92
355.044	46.86
355.256	47.19
355.468	60.91
355.679	63.97
355.891	57.13
356.103	61.47
356.314	56.85
356.526	45.97
356.738	41.64
356.949	33.08
357.161	37.18
357.373	31.03
357.584	34.4
357.796	40.72
358.008	38.1
358.219	34.09
358.431	42.05
358.642	27.54
358.854	24.68
359.065	25.27
359.277	30.04
359.488	30.35
359.7	31.77
359.911	35.28
360.123	41.23
360.334	36.64
360.546	12.6
360.757	24.18
360.969	27.53
361.18	21.64
361.391	19.57
361.603	19.23
361.814	7.32
362.025	8.99
362.237	9.63
362.448	9.72
362.659	16.88
362.871	29.98
363.082	7.01
363.293	16.64
363.504	20.49
363.716	29.95
363.927	-1.33
364.138	14.67
364.349	2.81
364.56	-12.84
364.772	-7.28
364.983	17.5
365.194	23.84
365.405	29.88
365.616	34.75
365.827	33.98
366.038	29.57
366.25	22.47
366.461	19.93
366.672	18.31
366.883	17.19
367.094	13.47
367.305	14.01
367.516	0.45
367.727	10.31
367.938	0.52
368.149	9.34
368.36	10.68
368.571	13.63
368.781	23.65
368.992	23.39
369.203	12.71
369.414	15.76
369.625	25.03
369.836	11.29
370.047	10.46
370.258	22.13
370.468	19.5
370.679	14.3
370.89	16.94
371.101	13.12
371.312	17.38
371.522	17.74
371.733	26.62
371.944	28.32
372.155	37.44
372.365	18.16
372.576	20.87
372.787	25.93
372.997	30.9
373.208	29.02
373.419	42.56
373.629	42.5
373.84	33.79
374.05	21.26
374.261	17.65
374.472	18.18
374.682	20.52
374.893	27.58
375.103	34.29
375.314	37.64
375.524	43.95
375.735	35.24
375.945	26.76
376.156	35.48
376.366	43.46
376.577	24.32
376.787	23.21
376.997	30.82
377.208	29.09
377.418	25.33
377.629	39.46
377.839	47.27
378.049	41.66
378.26	34.77
378.47	35.2
378.68	32.88
378.89	30.15
379.101	20.39
379.311	13.87
379.521	11.28
379.732	7.4
379.942	23.18
380.152	25.8
380.362	41.36
380.572	23.11
380.783	21.11
380.993	1.32
381.203	-0.58
381.413	-18.68
381.623	-5.29
381.833	-7.35
382.043	2.47
382.253	14.92
382.463	24.61
382.674	32.43
382.884	34.26
383.094	26.98
383.304	23.84
383.514	22.03
383.724	15.52
383.934	18.84
384.144	18.37
384.353	20.15
384.563	24.47
384.773	23.74
384.983	15.67
385.193	15.53
385.403	10.09
385.613	6.35
385.823	10.85
386.033	13.53
386.242	19.84
386.452	20.04
386.662	26.4
386.872	26.13
387.082	25.74
387.291	15.92
387.501	15.18
387.711	5.96
387.921	5.24
388.13	8.68
388.34	12.66
388.55	13.55
388.759	11.48
388.969	11.87
389.179	10.86
389.388	11.44
389.598	14.27
389.807	15.75
390.017	16.31
390.227	17.33
390.436	16.56
390.646	12.92
390.855	11.06
391.065	8.41
391.274	7.13
391.484	4.95
391.693	6.47
391.903	9.97
392.112	9.39
392.322	7.31
392.531	8.41
392.74	6.84
392.95	6.86
393.159	8.46
393.369	9.84
393.578	10.95
393.787	10.14
393.997	9.34
394.206	9.85
394.415	9.24
394.625	7.88
394.834	8.77
395.043	7.88
395.252	7.13
395.462	8.29
395.671	8.5
395.88	9.14
396.089	9.51
396.298	9.34
396.508	8.7
396.717	9.51
396.926	8.63
397.135	8.45
397.344	8.61
397.553	8.64
397.762	8.03
397.971	7.87
398.181	7.9
398.39	7.13
398.599	7.06
398.808	6.9
399.017	7.13
399.226	6.98
399.435	7.38
399.644	7.69
399.853	7.98
400.062	8.05
400.27	7.72
400.479	7.3
400.688	7.02
400.897	6.8
401.106	6.85
401.315	7.28
401.524	7.55
401.733	7.5
401.941	7.57
402.15	7.43
402.359	7.32
402.568	7.28
402.777	7.29
402.985	7.14
403.194	7.4
403.403	7.54
403.612	7.43
403.82	7.4
404.029	7.51
404.238	7.4
404.446	7.32
404.655	7.55
404.864	7.67
405.072	7.68
405.281	7.44
405.489	7.27
405.698	7.25
405.906	7.35
406.115	7.05
406.324	7.06
406.532	7.04
406.741	6.91
406.949	6.81
407.158	6.89
407.366	6.83
407.574	6.97
407.783	6.87
407.991	6.8
408.2	6.83
408.408	7.02
408.617	6.94
408.825	6.96
409.033	6.83
409.242	6.76
409.45	6.62
409.658	6.64
409.867	6.68
410.075	6.71
410.283	6.79
410.491	6.75
410.7	6.67
410.908	6.66
411.116	6.74
411.324	6.75
411.533	6.74
411.741	6.58
411.949	6.45
412.157	6.26
412.365	6.35
412.573	6.24
412.781	6.26
412.99	6.29
413.198	6.48
413.406	6.33
413.614	6.51
413.822	6.57
414.03	6.62
414.238	6.39
414.446	6.43
414.654	6.22
414.862	6.25
415.07	6.15
415.278	6.28
415.486	6.11
415.694	6.28
415.902	6.23
416.109	6.32
416.317	6.15
416.525	6.14
416.733	6.01
416.941	6.19
417.149	5.93
417.357	6.17
417.564	6.08
417.772	6.29
417.98	6.1
418.188	6.41
418.395	6.18
418.603	6.27
418.811	6.11
419.019	6.05
419.226	6.07
419.434	6.3
419.642	6.33
419.849	6.31
420.057	6.35
420.265	6.31
420.472	6.1
420.68	6.04
420.887	6.1
421.095	6.03
421.302	5.86
421.51	6.02
421.717	6.01
421.925	5.92
422.132	5.93
422.34	5.89
422.547	5.8
422.755	6.12
422.962	6.09
423.17	6.23
423.377	6.14
423.585	6.23
423.792	6.03
423.999	6.12
424.207	6.01
424.414	6.01
424.621	5.84
424.829	5.64
425.036	5.63
425.243	5.57
425.451	5.5
425.658	5.54
425.865	5.76
426.072	5.56
426.28	5.66
426.487	5.79
426.694	5.78
426.901	5.78
427.108	5.79
427.315	5.65
427.523	5.42
427.73	5.26
427.937	5.09
428.144	5.27
428.351	5.22
428.558	5.51
428.765	5.6
428.972	5.67
429.179	5.54
429.386	5.62
429.593	5.48
429.8	5.45
430.007	5.47
430.214	5.44
430.421	5.45
430.628	5.55
430.835	5.67
431.042	5.54
431.249	5.76
431.456	5.91
431.662	5.97
431.869	5.99
432.076	5.95
432.283	5.81
432.49	5.63
432.697	5.55
432.903	5.37
433.11	5.66
433.317	5.61
433.524	5.64
433.73	5.54
433.937	5.52
434.144	5.25
434.35	5.35
434.557	5.35
434.764	5.37
434.97	5.47
435.177	5.67
435.384	5.48
435.59	5.58
435.797	5.66
436.003	5.67
436.21	5.45
436.416	5.48
436.623	5.33
436.829	5.23
437.036	5.21
437.242	5.22
437.449	5.18
437.655	5.28
437.862	5.43
438.068	5.38
438.275	5.5
438.481	5.5
438.687	5.53
438.894	5.45
439.1	5.41
439.307	5.39
439.513	5.44
439.719	5.44
439.926	5.42
440.132	5.58
440.338	5.54
440.544	5.52
440.751	5.47
440.957	5.55
441.163	5.4
441.369	5.49
441.575	5.52
441.782	5.52
441.988	5.49
442.194	5.57
442.4	5.57
442.606	5.58
442.812	5.61
443.018	5.48
443.224	5.5
443.431	5.4
443.637	5.45
443.843	5.36
444.049	5.37
444.255	5.24
444.461	5.2
444.667	5.07
444.873	5.15
445.079	5.28
445.284	5.37
445.49	5.47
445.696	5.53
445.902	5.5
446.108	5.49
446.314	5.47
446.52	5.36
446.726	5.44
446.931	5.42
447.137	5.4
447.343	5.33
447.549	5.4
447.755	5.37
447.96	5.44
448.166	5.46
448.372	5.56
448.578	5.57
448.783	5.5
448.989	5.52
449.195	5.43
449.4	5.45
449.606	5.31
449.812	5.29
450.017	5.23
450.223	5.29
450.428	5.15
450.634	5.28
450.84	5.3
451.045	5.41
451.251	5.46
451.456	5.55
451.662	5.54
451.867	5.55
452.073	5.43
452.278	5.36
452.483	5.34
452.689	5.37
452.894	5.47
453.1	5.43
453.305	5.49
453.51	5.57
453.716	5.5
453.921	5.49
454.127	5.61
454.332	5.48
454.537	5.47
454.742	5.45
454.948	5.36
455.153	5.36
455.358	5.38
455.563	5.44
455.769	5.37
455.974	5.35
456.179	5.31
456.384	5.22
456.589	5.23
456.795	5.31
457	5.34
457.205	5.27
457.41	5.46
457.615	5.35
457.82	5.28
458.025	5.31
458.23	5.39
458.435	5.37
458.64	5.31
458.845	5.44
459.05	5.38
459.255	5.41
459.46	5.35
459.665	5.43
459.87	5.47
460.075	5.62
460.28	5.61
460.485	5.71
460.69	5.67
460.895	5.69
461.099	5.65
461.304	5.61
461.509	5.57
461.714	5.68
461.919	5.72
462.123	5.63
462.328	5.63
462.533	5.64
462.738	5.54
462.942	5.5
463.147	5.56
463.352	5.43
463.556	5.52
463.761	5.53
463.966	5.41
464.17	5.43
464.375	5.59
464.58	5.57
464.784	5.55
464.989	5.63
465.193	5.58
465.398	5.65
465.602	5.64
465.807	5.63
466.011	5.68
466.216	5.68
466.42	5.61
466.625	5.62
466.829	5.71
467.034	5.67
467.238	5.75
467.443	5.77
467.647	5.7
467.851	5.65
468.056	5.58
468.26	5.55
