Data from Ofav_PP_Phys_362_Reflection_1.txt Node
Date: Tue Jul 27 19:09:24 EDT 2021
User: USUARIO
Spectrometer: FLMT01687
Trigger mode: 0
Integration Time (sec): 8.500000E-1
Scans to average: 2
Electric dark correction enabled: true
Nonlinearity correction enabled: false
Boxcar width: 2
XAxis mode: Wavelengths
Number of Pixels in Spectrum: 3648
>>>>>Begin Spectral Data<<<<<
179.494	-1792.59
179.716	-617.47
179.937	-380.34
180.158	-341.54
180.38	-359.17
180.601	-307.95
180.823	40.62
181.044	64.18
181.265	-4.42
181.486	-147.6
181.708	-37.82
181.929	69.9
182.15	49.22
182.372	-108.46
182.593	-5.4
182.814	69.53
183.035	82.02
183.257	53.97
183.478	55.07
183.699	37.51
183.92	47.15
184.141	44.63
184.363	75.76
184.584	88.3
184.805	113.04
185.026	90.84
185.247	102.78
185.468	64.73
185.689	37.87
185.91	18.93
186.132	10.92
186.353	13.71
186.574	1.74
186.795	12.68
187.016	23.75
187.237	8.27
187.458	17.63
187.679	19.81
187.9	20.31
188.121	18.64
188.342	53.2
188.563	49.85
188.784	86.5
189.005	89.65
189.226	84.5
189.447	68.81
189.667	70.73
189.888	85.98
190.109	84.61
190.33	85.63
190.551	64.97
190.772	54.89
190.993	33.26
191.214	27.78
191.434	35.83
191.655	55.93
191.876	52.87
192.097	41.37
192.318	53.86
192.538	53.89
192.759	42.51
192.98	56.5
193.201	66.26
193.421	68.25
193.642	38.62
193.863	32.17
194.083	16.93
194.304	5.49
194.525	-14.5
194.745	-10.92
194.966	-41.35
195.187	-46.81
195.407	-8.36
195.628	19.74
195.848	13.45
196.069	46.6
196.29	81.82
196.51	66.08
196.731	51.16
196.951	56.24
197.172	45.91
197.392	50.99
197.613	71.57
197.833	63.41
198.054	69.43
198.274	59.89
198.495	57.03
198.715	36.43
198.936	31.62
199.156	31.1
199.377	34.79
199.597	13.27
199.817	39.44
200.038	19.08
200.258	20.01
200.479	18.33
200.699	15.17
200.919	-5.59
201.14	7.83
201.36	3.8
201.58	17.2
201.801	13.16
202.021	27.08
202.241	56.95
202.461	53.93
202.682	23.34
202.902	21.12
203.122	10.4
203.342	-7.79
203.563	24.19
203.783	41.94
204.003	41.58
204.223	48.34
204.443	61.11
204.663	66.99
204.884	62.39
205.104	45.5
205.324	62.17
205.544	42.68
205.764	28.94
205.984	23.47
206.204	37.48
206.424	17.77
206.644	28.96
206.864	57.33
207.084	38.79
207.304	44.5
207.525	50.58
207.745	62.01
207.964	57.3
208.184	69.13
208.404	81.13
208.624	66.82
208.844	68.43
209.064	55.33
209.284	47.29
209.504	36.92
209.724	41.43
209.944	6.63
210.164	54.64
210.384	86.04
210.604	64.15
210.823	48.59
211.043	62.5
211.263	51.64
211.483	71.14
211.703	67.34
211.922	59.39
212.142	80.02
212.362	53.43
212.582	51.54
212.801	65.99
213.021	68.44
213.241	61.29
213.461	57.58
213.68	50.59
213.9	39.61
214.12	58.58
214.339	61.46
214.559	65.76
214.779	53.83
214.998	38.61
215.218	16.89
215.438	15.32
215.657	11.44
215.877	10.33
216.096	17.37
216.316	36.11
216.535	22.15
216.755	37.73
216.974	58.15
217.194	81.65
217.413	68.82
217.633	72.5
217.852	51.44
218.072	36.12
218.291	16.37
218.511	25.25
218.73	34.77
218.95	56.65
219.169	61.58
219.389	59.12
219.608	70.38
219.827	83.89
220.047	71.5
220.266	64.08
220.485	60.94
220.705	62.36
220.924	67.68
221.143	60.98
221.363	55.34
221.582	50.62
221.801	45.67
222.021	35.42
222.24	47.13
222.459	50.61
222.678	56.71
222.897	48.73
223.117	56.84
223.336	33.05
223.555	39.81
223.774	38.52
223.993	40.24
224.213	20.36
224.432	24.46
224.651	33.95
224.87	26.63
225.089	21.97
225.308	19.88
225.527	31.13
225.746	5.61
225.965	27.08
226.184	37.73
226.404	48.18
226.623	45.7
226.842	38.79
227.061	22.77
227.28	19.22
227.499	25.57
227.718	16.25
227.936	29.02
228.155	36.96
228.374	42.84
228.593	50.67
228.812	60.46
229.031	68.71
229.25	70.38
229.469	67.36
229.688	25.17
229.907	-13.98
230.125	-12.03
230.344	8.99
230.563	32.6
230.782	68.5
231.001	70.93
231.22	72.59
231.438	60.86
231.657	32.63
231.876	10.6
232.095	23
232.313	29.34
232.532	36.87
232.751	43.28
232.969	48.67
233.188	38.73
233.407	16.69
233.625	1.83
233.844	17.17
234.063	19.38
234.281	36.2
234.5	33.13
234.719	56.52
234.937	31.01
235.156	36.26
235.374	19.29
235.593	21.35
235.811	10.8
236.03	29.15
236.249	14.46
236.467	15.91
236.686	22.49
236.904	18.18
237.123	21.36
237.341	18.26
237.559	31.13
237.778	36.89
237.996	45.47
238.215	40.39
238.433	43.44
238.652	36.89
238.87	33.96
239.088	23.73
239.307	38.2
239.525	26.17
239.743	18.7
239.962	17.61
240.18	29.87
240.398	6.05
240.617	7.16
240.835	23.52
241.053	32.93
241.271	17.88
241.49	31.2
241.708	44.16
241.926	39.68
242.144	19.75
242.363	37.4
242.581	53
242.799	46.62
243.017	33.16
243.235	49.71
243.453	31.88
243.672	25.98
243.89	7.9
244.108	1.83
244.326	12.93
244.544	-0.53
244.762	1.46
244.98	27.47
245.198	52.52
245.416	50.86
245.634	76.21
245.852	105.2
246.07	91.11
246.288	62.46
246.506	63.24
246.724	53.39
246.942	41.59
247.16	43.07
247.378	40.86
247.596	44.64
247.814	47.7
248.032	35.11
248.25	23.06
248.468	30.14
248.685	22.94
248.903	17.55
249.121	35.13
249.339	43.65
249.557	43.09
249.775	16.09
249.992	5.4
250.21	1.98
250.428	-4.5
250.646	-20.09
250.863	-1.39
251.081	19.79
251.299	36.16
251.517	38.47
251.734	55.9
251.952	59.66
252.17	54.33
252.387	19.07
252.605	39.66
252.823	45.56
253.04	56.21
253.258	69.35
253.475	70.23
253.693	73.35
253.911	81.99
254.128	66.83
254.346	45.47
254.563	52.95
254.781	46.41
254.998	35.98
255.216	26.89
255.433	33.32
255.651	41.27
255.868	31.5
256.086	27.14
256.303	31.85
256.521	46
256.738	43.13
256.956	39.02
257.173	44.11
257.39	41.94
257.608	48.63
257.825	48.96
258.043	47.32
258.26	50.01
258.477	52.85
258.695	43.46
258.912	37.92
259.129	44.62
259.346	43.12
259.564	56.29
259.781	54.61
259.998	42.56
260.216	57.41
260.433	52.96
260.65	54.73
260.867	45.61
261.084	64.37
261.302	39.62
261.519	43.47
261.736	25.52
261.953	33.98
262.17	19.57
262.387	19.98
262.604	29.25
262.822	49.33
263.039	47.45
263.256	67.29
263.473	86.64
263.69	77.6
263.907	54.04
264.124	84.41
264.341	62.31
264.558	63.53
264.775	57.87
264.992	67.03
265.209	46.94
265.426	50.85
265.643	38.16
265.86	38.14
266.077	35.78
266.294	46.68
266.51	56.54
266.727	64.25
266.944	66.46
267.161	48.99
267.378	27.78
267.595	26.49
267.812	23.25
268.028	42.53
268.245	56.52
268.462	64.44
268.679	36.1
268.896	37.1
269.112	9.43
269.329	1.72
269.546	16.52
269.763	8.24
269.979	7.81
270.196	24.11
270.413	51
270.629	46.13
270.846	79.26
271.063	60.86
271.279	59.87
271.496	41.68
271.712	35.07
271.929	11.55
272.146	11.3
272.362	16.24
272.579	10.01
272.795	26.8
273.012	26.88
273.228	34.98
273.445	36.97
273.661	43.96
273.878	35.25
274.094	43.81
274.311	47.4
274.527	42.88
274.744	36.49
274.96	46.01
275.177	26.54
275.393	27.07
275.609	38.07
275.826	39.77
276.042	29.56
276.259	47.53
276.475	28.06
276.691	19.2
276.908	17.15
277.124	19.14
277.34	28.82
277.557	39.24
277.773	55.23
277.989	67.48
278.205	62.29
278.422	47.52
278.638	57.66
278.854	52.23
279.07	50.23
279.286	53.87
279.503	64.35
279.719	60.23
279.935	60.94
280.151	50.26
280.367	54.33
280.583	57.85
280.799	51.24
281.016	46.3
281.232	57.02
281.448	56.3
281.664	44.06
281.88	38.16
282.096	52.11
282.312	52.93
282.528	47.74
282.744	57.48
282.96	64.24
283.176	72.23
283.392	73.01
283.608	81.69
283.824	70.53
284.04	42.47
284.256	36.39
284.471	19.32
284.687	6.94
284.903	-7.78
285.119	14.96
285.335	-3.16
285.551	-1.53
285.767	21.82
285.982	19.93
286.198	13.17
286.414	19.37
286.63	29.61
286.846	-6.57
287.061	0.88
287.277	12.1
287.493	18.54
287.709	21.39
287.924	49.7
288.14	62.04
288.356	57.11
288.571	64.25
288.787	56.54
289.003	47.36
289.218	44.38
289.434	36.8
289.65	27.58
289.865	23.27
290.081	19.19
290.296	16.75
290.512	20.56
290.727	32.43
290.943	44.81
291.159	61.97
291.374	60.19
291.59	58.94
291.805	45.01
292.021	47.11
292.236	49.37
292.451	45.62
292.667	48.08
292.882	40.59
293.098	30.12
293.313	37.73
293.529	51.81
293.744	36.79
293.959	37.82
294.175	53.05
294.39	30.41
294.605	25.07
294.821	32.86
295.036	46.41
295.251	34.17
295.467	62.26
295.682	44.47
295.897	48.76
296.112	51.42
296.328	40.22
296.543	50.35
296.758	56.31
296.973	51.35
297.188	49.28
297.404	51.04
297.619	44.67
297.834	44.68
298.049	33.85
298.264	31.69
298.479	36.4
298.694	35.98
298.909	37.24
299.125	42.22
299.34	36.06
299.555	44.95
299.77	41.65
299.985	35.15
300.2	37.18
300.415	40.6
300.63	12.87
300.845	24.4
301.06	23.36
301.275	18.61
301.49	13.45
301.704	23.44
301.919	28.99
302.134	42.37
302.349	39.62
302.564	41.66
302.779	37.29
302.994	28.21
303.209	36.86
303.423	33.22
303.638	19.62
303.853	12.52
304.068	24.42
304.283	11.28
304.497	21.15
304.712	43.65
304.927	52.62
305.142	72.16
305.356	73.55
305.571	87.92
305.786	74.03
306	63.1
306.215	29.17
306.43	41.89
306.644	35.2
306.859	40.22
307.074	53.93
307.288	55.74
307.503	46.21
307.717	38.79
307.932	33.23
308.147	41.82
308.361	41.37
308.576	47.25
308.79	50.67
309.005	28.11
309.219	9.42
309.434	14.69
309.648	17.38
309.863	15.04
310.077	31.09
310.292	29.71
310.506	23.59
310.72	18.24
310.935	26
311.149	33.02
311.364	44.89
311.578	61.63
311.792	47.6
312.007	46.04
312.221	44.59
312.435	46.49
312.649	37.04
312.864	-3.28
313.078	-32.81
313.292	-54.52
313.507	-42.84
313.721	-4.11
313.935	34.39
314.149	42.06
314.363	45.19
314.578	53.25
314.792	41.07
315.006	52.8
315.22	59.06
315.434	50.62
315.648	46.51
315.862	58.34
316.077	55.45
316.291	49.51
316.505	53.46
316.719	79.33
316.933	62.41
317.147	58.85
317.361	55.17
317.575	52.29
317.789	31.5
318.003	32.89
318.217	35.28
318.431	45.55
318.645	64.61
318.859	58.87
319.073	32.33
319.287	25.49
319.5	17.02
319.714	2.62
319.928	7.37
320.142	24.23
320.356	43.68
320.57	46.14
320.784	48.23
320.997	60.9
321.211	62.82
321.425	54.87
321.639	42.14
321.853	46.69
322.066	41.78
322.28	29.99
322.494	24.07
322.707	28.41
322.921	25.57
323.135	12.39
323.349	16.99
323.562	27.76
323.776	38.99
323.989	26.07
324.203	47.85
324.417	48.61
324.63	46.34
324.844	41.66
325.057	55.09
325.271	39.99
325.485	38.01
325.698	32
325.912	31.06
326.125	40.02
326.339	53.78
326.552	48.83
326.766	53.99
326.979	47.57
327.193	33.85
327.406	17.76
327.619	17.98
327.833	1.88
328.046	10.48
328.26	12.96
328.473	-13.64
328.686	-6.54
328.9	9.76
329.113	2
329.326	-8.76
329.54	43.53
329.753	40.84
329.966	31.99
330.179	39.75
330.393	68.79
330.606	46.17
330.819	51.13
331.032	47.05
331.246	62.81
331.459	47.66
331.672	62.17
331.885	59.47
332.098	73.75
332.311	65.22
332.525	56.83
332.738	34.44
332.951	47.85
333.164	38.03
333.377	21.23
333.59	27.06
333.803	39.41
334.016	16.11
334.229	4.68
334.442	24.12
334.655	28.09
334.868	23.23
335.081	43.9
335.294	67.41
335.507	69.39
335.72	80.6
335.933	73.81
336.146	69.14
336.359	49.18
336.572	54.53
336.785	24.7
336.997	36.93
337.21	34.3
337.423	28.17
337.636	8.44
337.849	25.41
338.062	27.12
338.274	34.73
338.487	53.85
338.7	53.62
338.913	56.37
339.125	68.42
339.338	57.42
339.551	27.43
339.763	28.75
339.976	23.59
340.189	12.88
340.402	14.9
340.614	23.81
340.827	25.13
341.039	26.57
341.252	11.46
341.465	-3.91
341.677	12.97
341.89	9.43
342.102	27.19
342.315	33.42
342.527	41.52
342.74	37.43
342.952	15.02
343.165	25.27
343.377	29.23
343.59	24.58
343.802	25.69
344.015	46.35
344.227	42.98
344.44	26.27
344.652	41.3
344.864	43.97
345.077	23.28
345.289	2.73
345.502	9.03
345.714	2.96
345.926	-17.03
346.139	-0.33
346.351	15.27
346.563	10.25
346.775	22.97
346.988	26.46
347.2	13.9
347.412	13.64
347.624	27.98
347.837	7.35
348.049	27.57
348.261	43.65
348.473	34.74
348.685	42.27
348.897	46.08
349.11	31.88
349.322	8.74
349.534	27.84
349.746	28.58
349.958	32.77
350.17	34.79
350.382	40.1
350.594	21.8
350.806	22.9
351.018	19.69
351.23	9.31
351.442	13.85
351.654	31.29
351.866	19.97
352.078	13.93
352.29	15.07
352.502	18.53
352.714	19.38
352.926	28.88
353.138	37.26
353.35	40.81
353.561	40.03
353.773	32.82
353.985	17.63
354.197	31.05
354.409	40.7
354.621	38.4
354.832	44.61
355.044	40.21
355.256	41.23
355.468	29.13
355.679	48.82
355.891	56.71
356.103	74.3
356.314	70.4
356.526	86.59
356.738	79.4
356.949	64.27
357.161	57.88
357.373	43.94
357.584	31.83
357.796	37.24
358.008	50.33
358.219	54.76
358.431	55.77
358.642	57.95
358.854	51.34
359.065	38.69
359.277	42.47
359.488	47.85
359.7	50.67
359.911	44.12
360.123	46.31
360.334	32.39
360.546	24.87
360.757	23.71
360.969	22.48
361.18	25.17
361.391	36.25
361.603	39.44
361.814	43.33
362.025	55.72
362.237	57.98
362.448	49.69
362.659	39.76
362.871	36.29
363.082	24.55
363.293	33.24
363.504	39.93
363.716	50.87
363.927	36.87
364.138	33.48
364.349	10.6
364.56	-0.96
364.772	4.09
364.983	13.72
365.194	5.61
365.405	12.18
365.616	19.21
365.827	16.66
366.038	25.2
366.25	35.68
366.461	36.21
366.672	22.36
366.883	29.35
367.094	21.2
367.305	15.14
367.516	18.7
367.727	29.18
367.938	26.28
368.149	29.34
368.36	14.66
368.571	17.28
368.781	17.21
368.992	5.39
369.203	-9.21
369.414	7.37
369.625	-0.99
369.836	1.31
370.047	14.76
370.258	32.5
370.468	35.96
370.679	40
370.89	47.14
371.101	43.19
371.312	43.12
371.522	33.66
371.733	42.24
371.944	37.84
372.155	35.8
372.365	18.57
372.576	25.09
372.787	27.92
372.997	33.15
373.208	26.29
373.419	38.74
373.629	37.48
373.84	28.94
374.05	27.36
374.261	26.18
374.472	30.06
374.682	26.06
374.893	32.97
375.103	29.69
375.314	41.42
375.524	49.5
375.735	55.21
375.945	46.53
376.156	43.7
376.366	42.58
376.577	23.98
376.787	26.9
376.997	36.01
377.208	35.77
377.418	29.59
377.629	32.23
377.839	38.04
378.049	39.43
378.26	43.39
378.47	37.09
378.68	43.11
378.89	37.56
379.101	25.69
379.311	17.78
379.521	24.44
379.732	20.14
379.942	26.67
380.152	31.38
380.362	44.75
380.572	38.45
380.783	36.28
380.993	28.89
381.203	22.61
381.413	8.46
381.623	14.2
381.833	20.11
382.043	22.93
382.253	26.43
382.463	32.1
382.674	37
382.884	27.59
383.094	16.06
383.304	16.25
383.514	15
383.724	5.61
383.934	6.19
384.144	9.12
384.353	7.73
384.563	7.19
384.773	11.88
384.983	8.53
385.193	10.37
385.403	14.74
385.613	20.53
385.823	15.59
386.033	21.97
386.242	27.92
386.452	23.55
386.662	23.22
386.872	25.71
387.082	23.45
387.291	10.26
387.501	9.21
387.711	2.07
387.921	2.52
388.13	6.87
388.34	13.26
388.55	15.42
388.759	15.08
388.969	13.93
389.179	13.68
389.388	17.57
389.598	16.26
389.807	14.8
390.017	15.26
390.227	14.39
390.436	12.26
390.646	13.87
390.855	13.56
391.065	10.92
391.274	7.67
391.484	5.65
391.693	3.94
391.903	5.37
392.112	6.33
392.322	5.65
392.531	5.44
392.74	6.32
392.95	7.03
393.159	7.71
393.369	8.11
393.578	9.56
393.787	8.5
393.997	8.15
394.206	8.5
394.415	8.82
394.625	8.22
394.834	7.89
395.043	7.41
395.252	6.93
395.462	7.79
395.671	6.95
395.88	7.88
396.089	8.19
396.298	7.96
396.508	7.6
396.717	8.12
396.926	7.38
397.135	7.29
397.344	7.18
397.553	7.36
397.762	6.83
397.971	7
398.181	6.24
398.39	5.89
398.599	5.54
398.808	5.7
399.017	5.67
399.226	6.43
399.435	6.93
399.644	7.17
399.853	7.33
400.062	7.47
400.27	6.89
400.479	6.42
400.688	6.4
400.897	6.43
401.106	6.25
401.315	6.76
401.524	7.02
401.733	6.9
401.941	6.72
402.15	6.82
402.359	6.31
402.568	6.39
402.777	6.14
402.985	6.17
403.194	6.18
403.403	6.53
403.612	6.26
403.82	6.48
404.029	6.4
404.238	6.35
404.446	6.31
404.655	6.44
404.864	6.42
405.072	6.38
405.281	6.29
405.489	6.13
405.698	6.21
405.906	6.2
406.115	6.16
406.324	6.06
406.532	6.03
406.741	5.77
406.949	5.86
407.158	5.82
407.366	5.78
407.574	5.91
407.783	6.14
407.991	6
408.2	6.03
408.408	6.05
408.617	5.87
408.825	5.68
409.033	5.52
409.242	5.45
409.45	5.41
409.658	5.32
409.867	5.42
410.075	5.44
410.283	5.42
410.491	5.46
410.7	5.55
410.908	5.45
411.116	5.48
411.324	5.48
411.533	5.41
411.741	5.28
411.949	5.19
412.157	5.23
412.365	5.44
412.573	5.45
412.781	5.48
412.99	5.58
413.198	5.69
413.406	5.62
413.614	5.68
413.822	5.69
414.03	5.61
414.238	5.42
414.446	5.36
414.654	5.23
414.862	5.17
415.07	5.15
415.278	5.07
415.486	5
415.694	4.95
415.902	5.02
416.109	5.11
416.317	5.24
416.525	5.19
416.733	5.17
416.941	5.21
417.149	5.05
417.357	5.08
417.564	4.99
417.772	5.06
417.98	5.09
418.188	5.34
418.395	5.2
418.603	5.15
418.811	5.36
419.019	5.35
419.226	5.25
419.434	5.45
419.642	5.71
419.849	5.46
420.057	5.41
420.265	5.37
420.472	5.16
420.68	5.06
420.887	5.19
421.095	5.06
421.302	4.97
421.51	4.91
421.717	4.89
421.925	4.8
422.132	4.86
422.34	4.78
422.547	4.77
422.755	4.87
422.962	4.89
423.17	5
423.377	5.2
423.585	5.42
423.792	5.39
423.999	5.42
424.207	5.33
424.414	5.18
424.621	5.04
424.829	4.72
425.036	4.62
425.243	4.43
425.451	4.55
425.658	4.48
425.865	4.85
426.072	4.93
426.28	5.07
426.487	5.09
426.694	5.02
426.901	4.87
427.108	4.8
427.315	4.82
427.523	4.68
427.73	4.62
427.937	4.51
428.144	4.48
428.351	4.42
428.558	4.5
428.765	4.63
428.972	4.65
429.179	4.73
429.386	4.76
429.593	4.64
429.8	4.63
430.007	4.66
430.214	4.68
430.421	4.78
430.628	4.92
430.835	5.01
431.042	4.89
431.249	5
431.456	4.94
431.662	5.08
431.869	5.18
432.076	5.29
432.283	5.13
432.49	5.06
432.697	4.92
432.903	4.87
433.11	5.09
433.317	5.09
433.524	5.09
433.73	4.96
433.937	4.82
434.144	4.61
434.35	4.7
434.557	4.75
434.764	4.82
434.97	4.9
435.177	5.03
435.384	4.81
435.59	4.77
435.797	4.75
436.003	4.83
436.21	4.57
436.416	4.67
436.623	4.64
436.829	4.47
437.036	4.43
437.242	4.48
437.449	4.56
437.655	4.64
437.862	4.79
438.068	4.58
438.275	4.65
438.481	4.54
438.687	4.52
438.894	4.58
439.1	4.74
439.307	4.64
439.513	4.75
439.719	4.83
439.926	4.69
440.132	4.8
440.338	4.82
440.544	4.76
440.751	4.55
440.957	4.67
441.163	4.48
441.369	4.49
441.575	4.48
441.782	4.71
441.988	4.66
442.194	4.72
442.4	4.78
442.606	4.84
442.812	4.72
443.018	4.66
443.224	4.59
443.431	4.51
443.637	4.48
443.843	4.42
444.049	4.57
444.255	4.61
444.461	4.55
444.667	4.44
444.873	4.44
445.079	4.41
445.284	4.39
445.49	4.38
445.696	4.42
445.902	4.44
446.108	4.35
446.314	4.39
446.52	4.47
446.726	4.54
446.931	4.54
447.137	4.59
447.343	4.5
447.549	4.44
447.755	4.32
447.96	4.4
448.166	4.38
448.372	4.44
448.578	4.47
448.783	4.58
448.989	4.55
449.195	4.5
449.4	4.51
449.606	4.51
449.812	4.48
450.017	4.45
450.223	4.44
450.428	4.45
450.634	4.41
450.84	4.46
451.045	4.53
451.251	4.64
451.456	4.68
451.662	4.68
451.867	4.69
452.073	4.55
452.278	4.48
452.483	4.38
452.689	4.42
452.894	4.37
453.1	4.46
453.305	4.49
453.51	4.51
453.716	4.55
453.921	4.6
454.127	4.57
454.332	4.48
454.537	4.6
454.742	4.48
454.948	4.38
455.153	4.41
455.358	4.53
455.563	4.45
455.769	4.48
455.974	4.45
456.179	4.43
456.384	4.29
456.589	4.3
456.795	4.28
457	4.36
457.205	4.28
457.41	4.36
457.615	4.31
457.82	4.29
458.025	4.28
458.23	4.27
458.435	4.23
458.64	4.08
458.845	4.1
459.05	4
459.255	4.1
459.46	4.13
459.665	4.31
459.87	4.45
460.075	4.7
460.28	4.67
460.485	4.69
460.69	4.65
460.895	4.54
461.099	4.46
461.304	4.47
461.509	4.46
461.714	4.52
461.919	4.64
462.123	4.61
462.328	4.61
462.533	4.58
462.738	4.49
462.942	4.4
463.147	4.4
463.352	4.3
463.556	4.36
463.761	4.37
463.966	4.35
464.17	4.38
464.375	4.49
464.58	4.46
464.784	4.48
464.989	4.49
465.193	4.49
465.398	4.52
465.602	4.59
465.807	4.56
466.011	4.55
466.216	4.49
466.42	4.48
466.625	4.36
466.829	4.34
467.034	4.42
467.238	4.41
467.443	4.44
467.647	4.41
467.851	4.45
468.056	4.4
468.26	4.46
468.464	4.39
