Data from Ofav_PP_Phys_367_Reflection_2.txt Node
Date: Tue Jul 27 19:08:11 EDT 2021
User: USUARIO
Spectrometer: FLMT01687
Trigger mode: 0
Integration Time (sec): 8.500000E-1
Scans to average: 2
Electric dark correction enabled: true
Nonlinearity correction enabled: false
Boxcar width: 2
XAxis mode: Wavelengths
Number of Pixels in Spectrum: 3648
>>>>>Begin Spectral Data<<<<<
179.494	-1791.11
179.716	-629.03
179.937	-431.24
180.158	-360.54
180.38	-417.89
180.601	-305.34
180.823	60.93
181.044	63.78
181.265	25.54
181.486	-68.31
181.708	-20.29
181.929	115.94
182.15	96.15
182.372	-15.54
182.593	7.25
182.814	38.86
183.035	56.67
183.257	47.98
183.478	40.99
183.699	34.82
183.92	39.35
184.141	-3.15
184.363	13.78
184.584	29.95
184.805	36.59
185.026	33.16
185.247	60.82
185.468	33.2
185.689	17.89
185.91	11.82
186.132	-8.07
186.353	2.33
186.574	0.9
186.795	-11.25
187.016	-26.26
187.237	-7.49
187.458	-3.92
187.679	5.46
187.9	-10.41
188.121	15.08
188.342	19.26
188.563	16.93
188.784	51.58
189.005	88.47
189.226	75.24
189.447	57.96
189.667	61.94
189.888	73.28
190.109	82.98
190.33	131.74
190.551	118.19
190.772	89.61
190.993	63.7
191.214	58.67
191.434	39.06
191.655	45.06
191.876	44.74
192.097	40.97
192.318	40.72
192.538	41.55
192.759	40.6
192.98	33.66
193.201	32.11
193.421	31.03
193.642	28.87
193.863	25.6
194.083	33.07
194.304	17.29
194.525	-12.28
194.745	-54.57
194.966	-92.66
195.187	-98.06
195.407	-23.23
195.628	41.36
195.848	77.25
196.069	77.09
196.29	115.53
196.51	53.87
196.731	48.24
196.951	54.71
197.172	58.7
197.392	46.53
197.613	69.77
197.833	40.09
198.054	16.75
198.274	3.71
198.495	10.53
198.715	-2.51
198.936	4.84
199.156	42.89
199.377	90.16
199.597	98.93
199.817	83.72
200.038	149.71
200.258	121.55
200.479	64.54
200.699	43.28
200.919	2.87
201.14	3.24
201.36	-29.77
201.58	-27.52
201.801	-42.1
202.021	16.14
202.241	23.09
202.461	29.84
202.682	15.49
202.902	29.22
203.122	0.16
203.342	10.79
203.563	15.75
203.783	52.87
204.003	45.68
204.223	56.15
204.443	47.71
204.663	68.85
204.884	1.06
205.104	15.65
205.324	23.49
205.544	24.12
205.764	22.72
205.984	29.21
206.204	32.68
206.424	-9.13
206.644	20.31
206.864	31.81
207.084	34.55
207.304	19.66
207.525	30.1
207.745	25.68
207.964	24.29
208.184	34.8
208.404	43.99
208.624	39.2
208.844	45.32
209.064	62.2
209.284	58.87
209.504	49.09
209.724	52.73
209.944	63.28
210.164	16.01
210.384	16.04
210.604	71.26
210.823	47.4
211.043	17.49
211.263	17
211.483	12.6
211.703	11.88
211.922	8.71
212.142	81.64
212.362	70.89
212.582	91.21
212.801	86.33
213.021	85.53
213.241	26.36
213.461	12.14
213.68	11.68
213.9	-13.29
214.12	12.73
214.339	40.31
214.559	54.79
214.779	49.25
214.998	34.41
215.218	17.05
215.438	15.1
215.657	22.41
215.877	1.7
216.096	17.82
216.316	32.34
216.535	27.22
216.755	22.27
216.974	43.52
217.194	54.85
217.413	49.01
217.633	53.17
217.852	39.8
218.072	51.07
218.291	28.52
218.511	30.02
218.73	28.22
218.95	21.71
219.169	26.48
219.389	28.16
219.608	29.36
219.827	53.38
220.047	98.96
220.266	66.54
220.485	63.99
220.705	69.39
220.924	62.09
221.143	41.73
221.363	29.09
221.582	29.33
221.801	14.29
222.021	26.31
222.24	44.17
222.459	41.21
222.678	35.19
222.897	38.07
223.117	37.45
223.336	6.34
223.555	13.26
223.774	14.2
223.993	13.6
224.213	4.38
224.432	26.06
224.651	44.05
224.87	40.2
225.089	29.86
225.308	20.32
225.527	21.54
225.746	5.37
225.965	28.83
226.184	34.06
226.404	29.19
226.623	19.53
226.842	22.93
227.061	11.42
227.28	21.04
227.499	45.27
227.718	35.51
227.936	27.12
228.155	33.1
228.374	38.17
228.593	21.98
228.812	32.41
229.031	40.21
229.25	25.44
229.469	-2.34
229.688	-13.07
229.907	-35.62
230.125	-27.85
230.344	-9.39
230.563	28.12
230.782	36.43
231.001	42.22
231.22	49.98
231.438	49.61
231.657	28.78
231.876	32.26
232.095	36.52
232.313	46.77
232.532	36.02
232.751	36.03
232.969	21.08
233.188	23.45
233.407	2.65
233.625	17.19
233.844	14.06
234.063	29.65
234.281	37.43
234.5	39.56
234.719	50.38
234.937	38.58
235.156	27.73
235.374	16.94
235.593	26.94
235.811	27.4
236.03	32.74
236.249	49.14
236.467	63.61
236.686	54.27
236.904	53.52
237.123	60.43
237.341	44.52
237.559	39.16
237.778	36.71
237.996	26.18
238.215	29.84
238.433	42.06
238.652	25.57
238.87	22.5
239.088	9.5
239.307	20.19
239.525	-19.05
239.743	-15.22
239.962	-14.47
240.18	0.55
240.398	2.97
240.617	39.59
240.835	66.12
241.053	70.91
241.271	80.8
241.49	66.38
241.708	63.55
241.926	39.19
242.144	26.49
242.363	32.21
242.581	45.38
242.799	21.29
243.017	12.7
243.235	24.16
243.453	4.7
243.672	2.24
243.89	12.44
244.108	21.15
244.326	43.57
244.544	32.76
244.762	31.89
244.98	40.27
245.198	46.88
245.416	25.58
245.634	33.91
245.852	52.38
246.07	56.09
246.288	52.84
246.506	43.9
246.724	58.17
246.942	38.43
247.16	30.93
247.378	32.06
247.596	43.47
247.814	32.48
248.032	26.62
248.25	35.48
248.468	31.14
248.685	28.02
248.903	35.53
249.121	50.98
249.339	47.28
249.557	50.89
249.775	40.47
249.992	26.02
250.21	16.5
250.428	3.67
250.646	-4.24
250.863	2.37
251.081	10.69
251.299	36.35
251.517	38.2
251.734	41.36
251.952	28.42
252.17	42.09
252.387	7.24
252.605	23.2
252.823	14.08
253.04	31.98
253.258	36
253.475	37.68
253.693	39.92
253.911	57.78
254.128	48.29
254.346	40.22
254.563	41.3
254.781	27.08
254.998	23.32
255.216	-6.74
255.433	6.21
255.651	21.14
255.868	7.42
256.086	9.62
256.303	23.85
256.521	37.56
256.738	39.16
256.956	56.49
257.173	47.9
257.39	48.94
257.608	39.42
257.825	49.98
258.043	51.07
258.26	56.12
258.477	58.66
258.695	44.96
258.912	20.54
259.129	22.16
259.346	12.03
259.564	22.03
259.781	41.64
259.998	46.4
260.216	47.21
260.433	40.93
260.65	42.93
260.867	36.51
261.084	42.75
261.302	21.1
261.519	39.5
261.736	27.16
261.953	33.65
262.17	28.42
262.387	32.5
262.604	30.66
262.822	40.9
263.039	44.21
263.256	47.11
263.473	74.61
263.69	77.57
263.907	61.02
264.124	63.37
264.341	59.52
264.558	44.35
264.775	36.37
264.992	56.49
265.209	43.55
265.426	50.18
265.643	53.77
265.86	49.31
266.077	34.47
266.294	47.65
266.51	40.9
266.727	29.62
266.944	39.83
267.161	-15.93
267.378	-28.9
267.595	-19
267.812	-18.21
268.028	-17.55
268.245	50.29
268.462	58.28
268.679	45.06
268.896	53.51
269.112	27.75
269.329	38.68
269.546	34.74
269.763	27.55
269.979	27.21
270.196	61.98
270.413	54.51
270.629	65.4
270.846	81.69
271.063	56.49
271.279	48.92
271.496	53.45
271.712	17.9
271.929	-4.68
272.146	16.65
272.362	24.15
272.579	24.07
272.795	43.69
273.012	39.31
273.228	32.27
273.445	34.05
273.661	25.89
273.878	19.5
274.094	24.39
274.311	36.54
274.527	17.97
274.744	23.03
274.96	23.88
275.177	10.34
275.393	-4.28
275.609	11.38
275.826	4.46
276.042	6.82
276.259	17.33
276.475	30.8
276.691	9.78
276.908	13.8
277.124	17.8
277.34	31.39
277.557	11.33
277.773	31.58
277.989	45.04
278.205	47.14
278.422	40.4
278.638	41.31
278.854	42.29
279.07	36.76
279.286	22.94
279.503	27.24
279.719	39.26
279.935	44.61
280.151	41.62
280.367	51.73
280.583	56.2
280.799	60.96
281.016	52.88
281.232	61.02
281.448	51.62
281.664	45.63
281.88	42.8
282.096	57.76
282.312	30.75
282.528	24.51
282.744	26.25
282.96	16.82
283.176	10.55
283.392	36.87
283.608	46.01
283.824	32.86
284.04	21.11
284.256	20.01
284.471	16.59
284.687	22
284.903	24.09
285.119	30.87
285.335	31.11
285.551	14.88
285.767	22.54
285.982	19.9
286.198	28.76
286.414	22.7
286.63	39.47
286.846	16.13
287.061	14.25
287.277	7.39
287.493	19.63
287.709	3.86
287.924	24.57
288.14	38.99
288.356	65.14
288.571	65.34
288.787	62.91
289.003	60.3
289.218	55.6
289.434	34.68
289.65	26.29
289.865	27.65
290.081	32.24
290.296	24.01
290.512	22.73
290.727	24.69
290.943	55.17
291.159	77.63
291.374	73.73
291.59	55.19
291.805	47.79
292.021	33.04
292.236	31.74
292.451	37.5
292.667	48.34
292.882	40.44
293.098	29.3
293.313	28.57
293.529	31.98
293.744	28.3
293.959	42.21
294.175	50.2
294.39	38.12
294.605	45.59
294.821	44.36
295.036	35.75
295.251	36.68
295.467	38.82
295.682	12.29
295.897	22.75
296.112	38.35
296.328	37.31
296.543	43.72
296.758	38.16
296.973	34.06
297.188	25.08
297.404	11.59
297.619	14.32
297.834	26.75
298.049	19.76
298.264	33.15
298.479	47.83
298.694	34.99
298.909	18.08
299.125	21.7
299.34	7.6
299.555	16.28
299.77	24.05
299.985	33.95
300.2	42.64
300.415	54.42
300.63	50.35
300.845	61.63
301.06	72.76
301.275	68.09
301.49	56.95
301.704	35.06
301.919	41.79
302.134	45.56
302.349	47.72
302.564	43.82
302.779	41.99
302.994	26.77
303.209	27.31
303.423	13.38
303.638	-5.61
303.853	6.06
304.068	27.47
304.283	15.85
304.497	24.85
304.712	44.37
304.927	32.92
305.142	28.5
305.356	29.6
305.571	40.36
305.786	35.02
306	48.65
306.215	40.06
306.43	35.22
306.644	34.1
306.859	30.84
307.074	45.25
307.288	47.33
307.503	64.82
307.717	58.12
307.932	54.24
308.147	63.77
308.361	62.66
308.576	47.07
308.79	52.94
309.005	48.6
309.219	17.39
309.434	-0.89
309.648	-3.76
309.863	-16.13
310.077	8.03
310.292	23.56
310.506	21.09
310.72	39.51
310.935	41.91
311.149	15.32
311.364	-23.77
311.578	1.8
311.792	-5.5
312.007	5.42
312.221	13.54
312.435	21.03
312.649	37.82
312.864	36
313.078	37.21
313.292	77.03
313.507	69.47
313.721	66.53
313.935	52.38
314.149	60.71
314.363	53.34
314.578	57.88
314.792	44.94
315.006	61.11
315.22	52.66
315.434	40.64
315.648	27.76
315.862	22.56
316.077	1.78
316.291	9.26
316.505	21.97
316.719	33.95
316.933	40.96
317.147	38.76
317.361	19.35
317.575	4.85
317.789	7.8
318.003	10.25
318.217	37.16
318.431	47.75
318.645	58.15
318.859	64.03
319.073	45.89
319.287	26.99
319.5	24.18
319.714	13.31
319.928	17.29
320.142	24.01
320.356	41.51
320.57	42.33
320.784	47.85
320.997	51.67
321.211	62.7
321.425	46.16
321.639	32.55
321.853	34.22
322.066	27.08
322.28	-0.33
322.494	-0.19
322.707	13.05
322.921	13.7
323.135	7.74
323.349	18.04
323.562	15.79
323.776	11.75
323.989	-3.98
324.203	-15.67
324.417	-16.86
324.63	13.43
324.844	22.22
325.057	17.31
325.271	21.74
325.485	16.37
325.698	16.85
325.912	7.74
326.125	33.34
326.339	43.15
326.552	53.4
326.766	53.39
326.979	51.01
327.193	32.96
327.406	27.95
327.619	20.29
327.833	11.48
328.046	28.85
328.26	29.6
328.473	32.24
328.686	43.57
328.9	47.05
329.113	35
329.326	48.91
329.54	47.26
329.753	19.27
329.966	16.57
330.179	-1.64
330.393	-1.31
330.606	-1.08
330.819	20.42
331.032	17.82
331.246	35.89
331.459	33.3
331.672	35.56
331.885	30.08
332.098	40.1
332.311	44.82
332.525	54.65
332.738	35.36
332.951	35
333.164	32.44
333.377	5.6
333.59	13.02
333.803	28.72
334.016	20.23
334.229	10.36
334.442	37.01
334.655	40.77
334.868	39.87
335.081	38.9
335.294	48.89
335.507	36.87
335.72	57.28
335.933	54.25
336.146	62.96
336.359	64.47
336.572	72.27
336.785	38.86
336.997	48.11
337.21	51.15
337.423	40.53
337.636	22.86
337.849	13.6
338.062	19.71
338.274	32.07
338.487	42.92
338.7	38.58
338.913	44.3
339.125	40.12
339.338	26.04
339.551	5.55
339.763	6.46
339.976	26.42
340.189	27.04
340.402	8.83
340.614	5.56
340.827	19.8
341.039	6.45
341.252	-6.89
341.465	-9.91
341.677	5.2
341.89	-12.41
342.102	1.59
342.315	14.25
342.527	31.17
342.74	37.79
342.952	17.29
343.165	30.05
343.377	32.63
343.59	29.76
343.802	23.49
344.015	54.56
344.227	55.25
344.44	37.96
344.652	26.74
344.864	33.65
345.077	24.27
345.289	10.91
345.502	21.79
345.714	31.75
345.926	19.83
346.139	12.67
346.351	17.16
346.563	8.87
346.775	9.24
346.988	12.27
347.2	23.72
347.412	36.26
347.624	51.29
347.837	44.8
348.049	31.15
348.261	14.74
348.473	15.19
348.685	7.74
348.897	6.51
349.11	13.65
349.322	17.34
349.534	7.44
349.746	15.68
349.958	20.91
350.17	41.68
350.382	39.95
350.594	41.83
350.806	52.47
351.018	55.92
351.23	30.91
351.442	31.99
351.654	60.86
351.866	34.89
352.078	33.8
352.29	29.4
352.502	30.48
352.714	23.26
352.926	46.19
353.138	46.6
353.35	55.39
353.561	54.3
353.773	46.31
353.985	29.8
354.197	18.71
354.409	25.76
354.621	28.94
354.832	39.65
355.044	36.65
355.256	51.05
355.468	55.6
355.679	53.53
355.891	52.26
356.103	53.51
356.314	47.46
356.526	39.17
356.738	32.38
356.949	20.32
357.161	28.73
357.373	20.01
357.584	23.18
357.796	36.68
358.008	44.02
358.219	39.57
358.431	45.33
358.642	36.84
358.854	39.79
359.065	32.56
359.277	41.09
359.488	45.39
359.7	46.33
359.911	34.34
360.123	40.2
360.334	26.28
360.546	12.24
360.757	24.39
360.969	20.36
361.18	29.51
361.391	38.92
361.603	41.03
361.814	46.61
362.025	68.55
362.237	62.31
362.448	59.64
362.659	53.53
362.871	47.06
363.082	28.63
363.293	26.06
363.504	19.91
363.716	33.78
363.927	4.24
364.138	18.94
364.349	21.96
364.56	22.73
364.772	8.5
364.983	36.47
365.194	21.97
365.405	26.69
365.616	26.34
365.827	43.08
366.038	40.27
366.25	53.58
366.461	57.9
366.672	48.67
366.883	32.34
367.094	35.62
367.305	17.91
367.516	14.74
367.727	39.46
367.938	52.07
368.149	42.46
368.36	52.74
368.571	31.88
368.781	25.42
368.992	9.59
369.203	-1.24
369.414	-2.41
369.625	-5.88
369.836	-13.53
370.047	-10.25
370.258	12.69
370.468	14.66
370.679	25.68
370.89	27.96
371.101	27.05
371.312	20.12
371.522	25.02
371.733	30.89
371.944	29.17
372.155	32.97
372.365	23.93
372.576	18.49
372.787	17.44
372.997	32.51
373.208	27.83
373.419	32.73
373.629	34.89
373.84	32.96
374.05	25.56
374.261	21.98
374.472	34.49
374.682	40.04
374.893	42.63
375.103	40.58
375.314	49.32
375.524	47.06
375.735	41.44
375.945	33.12
376.156	28.62
376.366	31.76
376.577	27.98
376.787	26.1
376.997	19.87
377.208	31.45
377.418	28.32
377.629	24.81
377.839	30
378.049	39.3
378.26	33.02
378.47	38.31
378.68	50.26
378.89	41.6
379.101	29.38
379.311	25.34
379.521	22.62
379.732	14.4
379.942	24.31
380.152	32.98
380.362	30.59
380.572	22.4
380.783	15.57
380.993	5.99
381.203	9.08
381.413	4.74
381.623	10.11
381.833	20.28
382.043	27.5
382.253	29.98
382.463	32.69
382.674	38.11
382.884	27.75
383.094	14.44
383.304	22.1
383.514	23.95
383.724	8.11
383.934	7.69
384.144	10.83
384.353	4.6
384.563	7.54
384.773	16.04
384.983	15.04
385.193	17.83
385.403	19.2
385.613	20.65
385.823	17.53
386.033	18.44
386.242	23.59
386.452	19.32
386.662	21.08
386.872	25.19
387.082	25.44
387.291	16.43
387.501	17.74
387.711	13.03
387.921	13.97
388.13	13.11
388.34	14.76
388.55	13.92
388.759	14.12
388.969	12.36
389.179	14.7
389.388	18.59
389.598	21.01
389.807	20.53
390.017	20.95
390.227	21.87
390.436	17.95
390.646	16.33
390.855	14.3
391.065	11.63
391.274	9.07
391.484	10.26
391.693	11.43
391.903	14.02
392.112	14.33
392.322	14.99
392.531	14.34
392.74	13.91
392.95	13.72
393.159	14.7
393.369	14.99
393.578	16.62
393.787	16.35
393.997	16.43
394.206	16.79
394.415	17.02
394.625	15.06
394.834	14.66
395.043	14.69
395.252	14.67
395.462	14.51
395.671	14.98
395.88	15.89
396.089	16.07
396.298	15.68
396.508	15.77
396.717	16.4
396.926	14.93
397.135	13.86
397.344	13.87
397.553	13.96
397.762	12.89
397.971	13.26
398.181	13.58
398.39	13.48
398.599	13.46
398.808	14.04
399.017	14.3
399.226	14.23
399.435	14.43
399.644	14.45
399.853	14.7
400.062	14.7
400.27	14.48
400.479	13.76
400.688	13.54
400.897	13.23
401.106	13.23
401.315	13.83
401.524	14.34
401.733	14.34
401.941	14.01
402.15	13.9
402.359	13.45
402.568	13.34
402.777	13.02
402.985	13.2
403.194	13.24
403.403	13.32
403.612	13.21
403.82	13.23
404.029	13.25
404.238	13.23
404.446	13.25
404.655	13.41
404.864	13.58
405.072	13.5
405.281	13.29
405.489	13.15
405.698	13.01
405.906	12.92
406.115	12.68
406.324	12.65
406.532	12.55
406.741	12.55
406.949	12.48
407.158	12.53
407.366	12.52
407.574	12.67
407.783	12.48
407.991	12.39
408.2	12.35
408.408	12.32
408.617	12.12
408.825	12.13
409.033	12.09
409.242	11.99
409.45	12
409.658	12.01
409.867	11.93
410.075	11.91
410.283	12.06
410.491	11.92
410.7	11.89
410.908	12.05
411.116	12.04
411.324	11.93
411.533	11.92
411.741	11.87
411.949	11.59
412.157	11.65
412.365	11.82
412.573	11.83
412.781	11.78
412.99	11.95
413.198	12.03
413.406	11.82
413.614	11.98
413.822	11.97
414.03	11.91
414.238	11.67
414.446	11.66
414.654	11.52
414.862	11.48
415.07	11.38
415.278	11.41
415.486	11.34
415.694	11.25
415.902	11.23
416.109	11.25
416.317	11.23
416.525	11.15
416.733	11.04
416.941	11.11
417.149	11
417.357	10.96
417.564	10.91
417.772	10.89
417.98	10.82
418.188	10.9
418.395	10.79
418.603	10.86
418.811	10.87
419.019	10.76
419.226	10.73
419.434	10.88
419.642	11.04
419.849	11.11
420.057	11.24
420.265	11.15
420.472	10.96
420.68	10.68
420.887	10.65
421.095	10.52
421.302	10.49
421.51	10.58
421.717	10.7
421.925	10.56
422.132	10.52
422.34	10.61
422.547	10.33
422.755	10.41
422.962	10.49
423.17	10.36
423.377	10.31
423.585	10.74
423.792	10.56
423.999	10.37
424.207	10.36
424.414	10.13
424.621	10.01
424.829	9.91
425.036	10.03
425.243	10.25
425.451	10.26
425.658	10.03
425.865	10.25
426.072	10.22
426.28	10.07
426.487	10.35
426.694	10.38
426.901	10.34
427.108	10.46
427.315	10.46
427.523	10.24
427.73	10.18
427.937	10.13
428.144	10.16
428.351	10.06
428.558	10.24
428.765	10.32
428.972	10.44
429.179	10.27
429.386	10.43
429.593	10.26
429.8	10.33
430.007	10.3
430.214	10.32
430.421	10.31
430.628	10.42
430.835	10.41
431.042	10.31
431.249	10.29
431.456	10.26
431.662	10.26
431.869	10.28
432.076	10.25
432.283	10.42
432.49	10.46
432.697	10.45
432.903	10.41
433.11	10.53
433.317	10.44
433.524	10.33
433.73	10.32
433.937	10.26
434.144	10.22
434.35	10.32
434.557	10.4
434.764	10.32
434.97	10.23
435.177	10.35
435.384	10.25
435.59	10.27
435.797	10.38
436.003	10.48
436.21	10.3
436.416	10.26
436.623	10.18
436.829	10.13
437.036	10.11
437.242	10.05
437.449	10.09
437.655	10.09
437.862	10.27
438.068	10.23
438.275	10.58
438.481	10.58
438.687	10.64
438.894	10.53
439.1	10.55
439.307	10.25
439.513	10.29
439.719	10.31
439.926	10.17
440.132	10.25
440.338	10.4
440.544	10.32
440.751	10.16
440.957	10.3
441.163	10.27
441.369	10.23
441.575	10.16
441.782	10.37
441.988	10.24
442.194	10.23
442.4	10.25
442.606	10.37
442.812	10.28
443.018	10.33
443.224	10.22
443.431	10.06
443.637	10.12
443.843	10.09
444.049	10.05
444.255	10.05
444.461	10.05
444.667	9.83
444.873	9.79
445.079	9.88
445.284	10.02
445.49	10.19
445.696	10.29
445.902	10.24
446.108	10.17
446.314	10.11
446.52	10.02
446.726	10.03
446.931	10.05
447.137	10.04
447.343	9.97
447.549	9.92
447.755	9.88
447.96	9.88
448.166	9.86
448.372	9.85
448.578	9.76
448.783	9.75
448.989	9.77
449.195	9.66
449.4	9.64
449.606	9.68
449.812	9.56
450.017	9.54
450.223	9.62
450.428	9.52
450.634	9.49
450.84	9.53
451.045	9.44
451.251	9.47
451.456	9.54
451.662	9.39
451.867	9.38
452.073	9.41
452.278	9.31
452.483	9.31
452.689	9.45
452.894	9.43
453.1	9.36
453.305	9.32
453.51	9.25
453.716	9.13
453.921	9.1
454.127	9.12
454.332	9.02
454.537	9.09
454.742	8.96
454.948	8.88
455.153	8.91
455.358	8.92
455.563	8.82
455.769	8.85
455.974	8.76
456.179	8.58
456.384	8.37
456.589	8.39
456.795	8.32
457	8.45
457.205	8.41
457.41	8.54
457.615	8.43
457.82	8.41
458.025	8.25
458.23	8.29
458.435	8.23
458.64	8.04
458.845	8.09
459.05	8.14
459.255	8.14
459.46	8.22
459.665	8.26
459.87	8.32
460.075	8.27
460.28	8.2
460.485	8.07
460.69	8.03
460.895	8.03
461.099	8
461.304	7.88
461.509	7.88
461.714	7.96
461.919	7.89
462.123	7.86
462.328	7.94
462.533	7.9
462.738	7.87
462.942	7.74
463.147	7.79
463.352	7.81
463.556	7.87
463.761	7.88
463.966	7.88
464.17	7.98
464.375	7.99
