Data from Ofav_PP_Phys_9JQ4_Reflection_3.txt Node
Date: Tue Jul 27 19:05:18 EDT 2021
User: USUARIO
Spectrometer: FLMT01687
Trigger mode: 0
Integration Time (sec): 8.500000E-1
Scans to average: 2
Electric dark correction enabled: true
Nonlinearity correction enabled: false
Boxcar width: 2
XAxis mode: Wavelengths
Number of Pixels in Spectrum: 3648
>>>>>Begin Spectral Data<<<<<
179.494	-828.89
179.716	-326.61
179.937	-229.64
180.158	-235.58
180.38	-255.01
180.601	-361.92
180.823	131.78
181.044	105.05
181.265	98.34
181.486	155.14
181.708	-18.01
181.929	129.1
182.15	156.39
182.372	281.35
182.593	104.69
182.814	64.84
183.035	63.93
183.257	61.92
183.478	63.14
183.699	54.36
183.92	57.18
184.141	51.96
184.363	41.38
184.584	51.79
184.805	50.89
185.026	44.11
185.247	45.76
185.468	48.55
185.689	22.93
185.91	12.61
186.132	12.81
186.353	3.86
186.574	-5.06
186.795	-1.22
187.016	11.97
187.237	11.48
187.458	17.65
187.679	30.26
187.9	17.92
188.121	26.58
188.342	20.78
188.563	59.93
188.784	69.2
189.005	79.67
189.226	67.32
189.447	59.21
189.667	45.08
189.888	37.15
190.109	45.7
190.33	48.06
190.551	48.25
190.772	33.33
190.993	31.85
191.214	28.26
191.434	21.52
191.655	33.81
191.876	41.28
192.097	30.98
192.318	46.17
192.538	55.99
192.759	49.84
192.98	55.59
193.201	69.82
193.421	79.43
193.642	46.58
193.863	52.97
194.083	53.86
194.304	36.14
194.525	21.89
194.745	35.95
194.966	1.02
195.187	-33.67
195.407	1.13
195.628	17.51
195.848	31.02
196.069	49.87
196.29	73.42
196.51	75.51
196.731	68.18
196.951	62.79
197.172	56.29
197.392	45.37
197.613	27.31
197.833	11.46
198.054	25.55
198.274	16.79
198.495	55.35
198.715	102.18
198.936	102.52
199.156	86.86
199.377	138.84
199.597	127.26
199.817	46.97
200.038	57.06
200.258	89.6
200.479	61.27
200.699	69.62
200.919	66.34
201.14	65.54
201.36	44.22
201.58	42.04
201.801	8.68
202.021	3.95
202.241	4.23
202.461	3.98
202.682	-11.92
202.902	-16.08
203.122	14.56
203.342	12.64
203.563	43.96
203.783	53.13
204.003	54.32
204.223	66.59
204.443	72.46
204.663	73.19
204.884	47.32
205.104	54.04
205.324	40.49
205.544	53.69
205.764	43.45
205.984	31.93
206.204	9.4
206.424	30.1
206.644	13.72
206.864	21.42
207.084	40.61
207.304	60.24
207.525	49.94
207.745	66.39
207.964	69.52
208.184	65.4
208.404	63.99
208.624	53.68
208.844	55.23
209.064	77.62
209.284	71.83
209.504	77.87
209.724	100.69
209.944	62.12
210.164	-9.36
210.384	-45.81
210.604	-82.92
210.823	-0.36
211.043	17.74
211.263	25.39
211.483	60.54
211.703	72.71
211.922	69.86
212.142	103.86
212.362	79.33
212.582	59.51
212.801	51.85
213.021	57.04
213.241	55.28
213.461	50.04
213.68	43.44
213.9	-3.28
214.12	-1.41
214.339	26
214.559	38.24
214.779	43.31
214.998	67.77
215.218	63.27
215.438	46.82
215.657	53.57
215.877	41.5
216.096	41.47
216.316	54.3
216.535	42.19
216.755	43.62
216.974	63.97
217.194	78.53
217.413	66.75
217.633	83.2
217.852	54.46
218.072	43.54
218.291	16.96
218.511	17.51
218.73	15.82
218.95	28.49
219.169	30.5
219.389	22.89
219.608	22.95
219.827	31.53
220.047	27.43
220.266	43.42
220.485	60.44
220.705	52.91
220.924	50.18
221.143	42.41
221.363	19.77
221.582	11.39
221.801	23.21
222.021	31.48
222.24	32.44
222.459	42.99
222.678	43.97
222.897	37.92
223.117	38.65
223.336	28.93
223.555	31.48
223.774	31.14
223.993	34.81
224.213	24.87
224.432	47.78
224.651	59.21
224.87	40.41
225.089	28.48
225.308	31.1
225.527	30.36
225.746	17.41
225.965	41.79
226.184	38.81
226.404	50.78
226.623	42.6
226.842	24.19
227.061	18.39
227.28	25.6
227.499	26.33
227.718	29.24
227.936	46.29
228.155	56.87
228.374	60.98
228.593	60.38
228.812	69.97
229.031	59.03
229.25	54.1
229.469	44.49
229.688	29.22
229.907	-17.66
230.125	29.59
230.344	39.02
230.563	47.79
230.782	50.82
231.001	59.26
231.22	42.83
231.438	17.77
231.657	2.51
231.876	-7.46
232.095	4.15
232.313	12.25
232.532	27.86
232.751	45.91
232.969	55.8
233.188	55.37
233.407	49.39
233.625	56.67
233.844	44.04
234.063	55.76
234.281	69.11
234.5	52.14
234.719	58.62
234.937	58.04
235.156	39.88
235.374	41.43
235.593	55.83
235.811	54.4
236.03	62.9
236.249	66.54
236.467	73.68
236.686	62.89
236.904	58.43
237.123	51.98
237.341	50.3
237.559	50.09
237.778	56.35
237.996	61.88
238.215	61.44
238.433	71.76
238.652	46.32
238.87	43.48
239.088	16.18
239.307	32.92
239.525	-1.09
239.743	12.02
239.962	11.04
240.18	35.68
240.398	26.6
240.617	28.81
240.835	43.13
241.053	35.07
241.271	5.57
241.49	9.13
241.708	12.58
241.926	13.64
242.144	7.22
242.363	33.01
242.581	51.64
242.799	40.26
243.017	17.98
243.235	45.24
243.453	47.75
243.672	36.89
243.89	30.81
244.108	50.78
244.326	52.05
244.544	35.52
244.762	23.85
244.98	55.34
245.198	41.52
245.416	32.26
245.634	47.07
245.852	77.09
246.07	74.64
246.288	61.73
246.506	59.5
246.724	52.69
246.942	41.32
247.16	20.04
247.378	23.49
247.596	24.02
247.814	23.61
248.032	17.44
248.25	26.1
248.468	51.27
248.685	58.55
248.903	73.38
249.121	83.81
249.339	91.28
249.557	72.6
249.775	38
249.992	13.51
250.21	-0.35
250.428	-7.9
250.646	-20.25
250.863	6.59
251.081	27.36
251.299	38.31
251.517	44.26
251.734	72.46
251.952	61.8
252.17	43.67
252.387	24.25
252.605	21.59
252.823	11.04
253.04	28.88
253.258	40.09
253.475	46.77
253.693	59.17
253.911	58.54
254.128	48.32
254.346	34.26
254.563	33.79
254.781	24.34
254.998	36
255.216	30.84
255.433	42.9
255.651	45.42
255.868	28.14
256.086	10.02
256.303	10.38
256.521	24.14
256.738	26.25
256.956	17.75
257.173	23.06
257.39	30.01
257.608	24.1
257.825	16.91
258.043	35.09
258.26	47.97
258.477	45.31
258.695	46.01
258.912	61.96
259.129	55.05
259.346	38.82
259.564	54.09
259.781	63.08
259.998	38.7
260.216	59.75
260.433	62.83
260.65	61.04
260.867	48.6
261.084	76.75
261.302	68.61
261.519	61.76
261.736	39.74
261.953	39.36
262.17	24.96
262.387	12.51
262.604	15.98
262.822	17.97
263.039	25.98
263.256	31.59
263.473	66.59
263.69	89.88
263.907	78.42
264.124	96.98
264.341	74.13
264.558	61.77
264.775	51.41
264.992	67.19
265.209	55.45
265.426	59.92
265.643	55.7
265.86	55.32
266.077	46.56
266.294	59.67
266.51	61.2
266.727	62.78
266.944	60.73
267.161	64.71
267.378	53.48
267.595	60.17
267.812	66.08
268.028	59.23
268.245	50.13
268.462	60.09
268.679	45.53
268.896	33
269.112	26.08
269.329	34.36
269.546	31.57
269.763	23.71
269.979	34.95
270.196	39.35
270.413	43.23
270.629	37.92
270.846	47.48
271.063	35.73
271.279	45.14
271.496	29.47
271.712	28.94
271.929	13.09
272.146	21.83
272.362	23.37
272.579	31.32
272.795	53.51
273.012	64.84
273.228	46.18
273.445	43.17
273.661	29.65
273.878	18.65
274.094	19.03
274.311	44.03
274.527	40.65
274.744	46.62
274.96	41.78
275.177	31.42
275.393	22.53
275.609	31.24
275.826	40.92
276.042	43.39
276.259	58.24
276.475	59.77
276.691	58.95
276.908	56.26
277.124	47.65
277.34	49.63
277.557	48.72
277.773	46.24
277.989	49.35
278.205	54.03
278.422	38.45
278.638	41.93
278.854	56.06
279.07	65.29
279.286	62.74
279.503	67.11
279.719	66.62
279.935	60.82
280.151	56.06
280.367	55.25
280.583	56.73
280.799	58.64
281.016	45.91
281.232	47.03
281.448	43.86
281.664	41.46
281.88	35.24
282.096	30.71
282.312	10.59
282.528	12.87
282.744	13.56
282.96	4.73
283.176	21.25
283.392	47.5
283.608	52.13
283.824	40.37
284.04	27.74
284.256	39.29
284.471	32.43
284.687	33.23
284.903	44.51
285.119	59.23
285.335	45.69
285.551	28.4
285.767	27.93
285.982	9.77
286.198	17.59
286.414	2.94
286.63	18.32
286.846	25.71
287.061	35.83
287.277	12.4
287.493	26.5
287.709	23.77
287.924	40.83
288.14	46.53
288.356	85.71
288.571	98.65
288.787	84.78
289.003	69.72
289.218	53.07
289.434	24.66
289.65	3.19
289.865	-2.25
290.081	12.44
290.296	22.23
290.512	19.64
290.727	33.33
290.943	65.8
291.159	71.46
291.374	59.95
291.59	60.07
291.805	72.21
292.021	55.21
292.236	48.81
292.451	48.1
292.667	49.66
292.882	35.98
293.098	32.13
293.313	47.15
293.529	57.53
293.744	47.08
293.959	52.04
294.175	56.43
294.39	38.26
294.605	35.99
294.821	34.25
295.036	30.72
295.251	29.93
295.467	42.15
295.682	41.53
295.897	49.4
296.112	59.26
296.328	52.9
296.543	58.14
296.758	45.94
296.973	53.12
297.188	55.6
297.404	47.48
297.619	42.25
297.834	47.95
298.049	38.64
298.264	33.75
298.479	37.77
298.694	37.64
298.909	24.24
299.125	35.91
299.34	19.14
299.555	31.42
299.77	34.25
299.985	44.06
300.2	43.57
300.415	55.17
300.63	38.75
300.845	47.92
301.06	49.6
301.275	34.83
301.49	45.17
301.704	43.21
301.919	39.97
302.134	56.05
302.349	56.01
302.564	46.39
302.779	43.3
302.994	25.38
303.209	31.15
303.423	39.42
303.638	38.11
303.853	37.37
304.068	53.65
304.283	33.95
304.497	29.18
304.712	38.35
304.927	44.55
305.142	53.23
305.356	55.82
305.571	54.38
305.786	52.24
306	54.33
306.215	46.71
306.43	50.61
306.644	68.17
306.859	69.73
307.074	69.63
307.288	76.3
307.503	79.51
307.717	66.3
307.932	64.13
308.147	73.47
308.361	52.18
308.576	50.09
308.79	46.4
309.005	38.87
309.219	20.05
309.434	35.28
309.648	32.11
309.863	26.02
310.077	26.98
310.292	28.57
310.506	11.86
310.72	18.79
310.935	26.77
311.149	38.18
311.364	44.34
311.578	55.94
311.792	37.19
312.007	22.24
312.221	21.1
312.435	21.32
312.649	28.28
312.864	13.34
313.078	26.79
313.292	22.68
313.507	26.54
313.721	40.54
313.935	48.2
314.149	45.63
314.363	46.14
314.578	44.29
314.792	33.17
315.006	44
315.22	37.63
315.434	31.8
315.648	30.57
315.862	22.77
316.077	4.83
316.291	16.08
316.505	13.19
316.719	24.74
316.933	37.44
317.147	32.97
317.361	17.51
317.575	19.75
317.789	9.16
318.003	-1.11
318.217	10
318.431	24.13
318.645	26.73
318.859	28.07
319.073	27.3
319.287	26.35
319.5	29.26
319.714	22.39
319.928	27.91
320.142	9.6
320.356	39.91
320.57	29.73
320.784	45.07
320.997	53.57
321.211	74.52
321.425	58.82
321.639	53.86
321.853	49.05
322.066	36.44
322.28	5.44
322.494	3.12
322.707	21.04
322.921	22.9
323.135	11.83
323.349	31.21
323.562	37.4
323.776	22.4
323.989	1.46
324.203	14.21
324.417	5.94
324.63	22.26
324.844	18.25
325.057	15.99
325.271	12.24
325.485	11.62
325.698	8.84
325.912	28.12
326.125	54.32
326.339	52.15
326.552	62.6
326.766	58.06
326.979	45.79
327.193	27.85
327.406	33.67
327.619	22.5
327.833	26.77
328.046	48.12
328.26	48.31
328.473	31.82
328.686	37.85
328.9	32.16
329.113	17.76
329.326	-7.1
329.54	23.75
329.753	12.96
329.966	19.02
330.179	7.36
330.393	38.11
330.606	19.82
330.819	21.15
331.032	22.53
331.246	37.94
331.459	29.75
331.672	46.62
331.885	48.26
332.098	55.79
332.311	51.19
332.525	58.42
332.738	52.16
332.951	63.35
333.164	55.44
333.377	44.58
333.59	48.94
333.803	51.11
334.016	41.11
334.229	37.23
334.442	51.63
334.655	57.11
334.868	48.68
335.081	49.14
335.294	63.62
335.507	48.95
335.72	44.11
335.933	38.04
336.146	38.23
336.359	20.87
336.572	45.66
336.785	40.95
336.997	53.95
337.21	65.34
337.423	58.51
337.636	39.53
337.849	23
338.062	26.39
338.274	23.24
338.487	41.1
338.7	42.62
338.913	60.63
339.125	59.11
339.338	39.4
339.551	23.99
339.763	17.83
339.976	21.81
340.189	16.83
340.402	33.79
340.614	29.46
340.827	39.7
341.039	26.42
341.252	23.51
341.465	17.21
341.677	17.86
341.89	-0.06
342.102	10.99
342.315	25.5
342.527	36.5
342.74	39.58
342.952	47.46
343.165	52.36
343.377	44.59
343.59	17.79
343.802	24.03
344.015	19.18
344.227	10.5
344.44	7.24
344.652	42.77
344.864	46
345.077	41.06
345.289	35.86
345.502	23.34
345.714	26.32
345.926	15.92
346.139	17.33
346.351	16.23
346.563	21.05
346.775	26.88
346.988	21.74
347.2	16.7
347.412	24.59
347.624	33.08
347.837	8.93
348.049	10.15
348.261	16.9
348.473	12.73
348.685	25.91
348.897	37.78
349.11	39.08
349.322	31.05
349.534	33.02
349.746	21.77
349.958	31.43
350.17	42.74
350.382	37.54
350.594	28.66
350.806	41.37
351.018	28.65
351.23	30.61
351.442	32.04
351.654	53.42
351.866	33.08
352.078	33.23
352.29	26.32
352.502	21.61
352.714	17.82
352.926	24.45
353.138	27.29
353.35	26.78
353.561	44.28
353.773	42.18
353.985	35.68
354.197	29.61
354.409	31.64
354.621	19.12
354.832	33.96
355.044	30.42
355.256	39.22
355.468	47.21
355.679	51.2
355.891	52.54
356.103	48.56
356.314	42.18
356.526	39.33
356.738	39.3
356.949	29.2
357.161	39.98
357.373	33.45
357.584	22.17
357.796	16.56
358.008	17.88
358.219	22.37
358.431	22.29
358.642	33.44
358.854	49.15
359.065	41.96
359.277	42.16
359.488	49.42
359.7	49.24
359.911	50.79
360.123	65.57
360.334	60.49
360.546	53.1
360.757	52.7
360.969	40.68
361.18	24.56
361.391	23.93
361.603	30.5
361.814	24.38
362.025	29.39
362.237	37.29
362.448	33.72
362.659	24.57
362.871	30.71
363.082	27.07
363.293	17.13
363.504	17.31
363.716	19.49
363.927	-0.37
364.138	11.57
364.349	17.71
364.56	10.53
364.772	23.24
364.983	36.12
365.194	32.74
365.405	31.34
365.616	23.4
365.827	28.27
366.038	34.74
366.25	29
366.461	29.85
366.672	42.74
366.883	40.37
367.094	34.52
367.305	39.92
367.516	31.72
367.727	37.8
367.938	28.57
368.149	37.31
368.36	32.17
368.571	40.15
368.781	51.98
368.992	50.83
369.203	35.74
369.414	32.67
369.625	23.5
369.836	7.72
370.047	9.34
370.258	11.81
370.468	14.01
370.679	8.3
370.89	6.22
371.101	-8.78
371.312	0.79
371.522	-3.71
371.733	12.62
371.944	25.33
372.155	38.62
372.365	31.35
372.576	27.93
372.787	26.11
372.997	23.9
373.208	21.2
373.419	26.47
373.629	31.3
373.84	30.09
374.05	28.36
374.261	25.58
374.472	28.76
374.682	28.18
374.893	32.11
375.103	29.59
375.314	38.54
375.524	46.21
375.735	44.01
375.945	40.78
376.156	41.26
376.366	43.43
376.577	25.64
376.787	27.29
376.997	28.94
377.208	25.81
377.418	24.57
377.629	32.45
377.839	43.94
378.049	41.96
378.26	42.68
378.47	42.62
378.68	51.28
378.89	42.07
379.101	34.97
379.311	31.34
379.521	33.57
379.732	28.1
379.942	32.45
380.152	35.92
380.362	49.48
380.572	39.77
380.783	33.86
380.993	25.38
381.203	20.48
381.413	0.17
381.623	10.48
381.833	14.13
382.043	22.34
382.253	27.45
382.463	35.01
382.674	35.27
382.884	24.71
383.094	11.53
383.304	15.01
383.514	9.2
383.724	0.15
383.934	5.19
384.144	8.03
384.353	2.79
384.563	10.74
384.773	14.51
384.983	6.17
385.193	5.96
385.403	11
385.613	12.17
385.823	13.82
386.033	18.7
386.242	22.78
386.452	20.72
386.662	22.42
386.872	21.67
387.082	18.59
387.291	11.23
387.501	9.22
387.711	4.3
387.921	5.19
388.13	12.11
388.34	16.13
388.55	15.6
388.759	13.84
388.969	13.36
389.179	9.23
389.388	7.66
389.598	8.75
389.807	9.54
390.017	5.6
390.227	6.05
390.436	6.23
390.646	5.47
390.855	3.53
391.065	3.66
391.274	3.79
391.484	3.09
391.693	3.68
391.903	5.53
392.112	5.37
392.322	4.24
392.531	3.53
392.74	3.59
392.95	3.39
393.159	4.83
393.369	5.03
393.578	5.46
393.787	4.7
393.997	4.05
394.206	4.74
394.415	4.49
394.625	4.5
394.834	4.68
395.043	5.13
395.252	4.22
395.462	5.47
395.671	5.23
395.88	5.53
396.089	5.74
396.298	5.46
396.508	4.46
396.717	4.84
396.926	4.61
397.135	3.73
397.344	3.54
397.553	4.03
397.762	3.06
397.971	2.63
398.181	2.96
398.39	2.82
398.599	2.67
398.808	3.3
399.017	3.54
399.226	3.85
399.435	4.07
399.644	4.14
399.853	4.05
400.062	4.22
400.27	3.46
400.479	3.29
400.688	3.2
400.897	3.28
401.106	3.01
401.315	3.7
401.524	3.81
401.733	3.76
401.941	3.88
402.15	4.04
402.359	3.65
402.568	3.49
402.777	3.32
402.985	2.95
403.194	2.99
403.403	3.14
403.612	3.17
403.82	3.17
404.029	3.37
404.238	3.35
404.446	3.35
404.655	3.4
404.864	3.57
405.072	3.53
405.281	3.3
405.489	3.18
405.698	3.24
405.906	3.21
406.115	3.01
406.324	3.01
406.532	2.92
406.741	2.71
406.949	2.77
407.158	2.78
407.366	2.65
407.574	2.74
407.783	2.81
407.991	2.72
408.2	2.74
408.408	2.95
408.617	2.94
408.825	2.86
409.033	2.76
409.242	2.85
409.45	2.84
409.658	2.82
409.867	2.82
410.075	2.78
410.283	2.69
410.491	2.65
410.7	2.61
410.908	2.57
411.116	2.65
411.324	2.55
411.533	2.51
411.741	2.35
411.949	2.34
412.157	2.39
412.365	2.64
412.573	2.62
412.781	2.71
412.99	2.84
413.198	2.88
413.406	2.76
413.614	2.81
413.822	2.84
414.03	2.76
414.238	2.58
414.446	2.59
414.654	2.53
414.862	2.68
415.07	2.66
415.278	2.63
415.486	2.54
415.694	2.53
415.902	2.44
416.109	2.43
416.317	2.63
416.525	2.53
416.733	2.55
416.941	2.57
417.149	2.58
417.357	2.45
417.564	2.53
417.772	2.65
417.98	2.68
418.188	2.83
418.395	2.81
418.603	2.79
418.811	2.83
419.019	2.77
419.226	2.73
419.434	2.83
419.642	3.04
419.849	2.98
420.057	2.9
420.265	2.92
420.472	2.79
420.68	2.53
420.887	2.46
421.095	2.54
421.302	2.4
421.51	2.44
421.717	2.54
421.925	2.5
422.132	2.53
422.34	2.49
422.547	2.56
422.755	2.7
422.962	2.75
423.17	2.65
423.377	2.7
423.585	2.64
423.792	2.65
423.999	2.5
424.207	2.46
424.414	2.39
424.621	2.43
424.829	2.2
425.036	2.26
425.243	2.33
425.451	2.25
425.658	2.18
425.865	2.41
426.072	2.43
426.28	2.51
426.487	2.69
426.694	2.6
426.901	2.53
427.108	2.37
427.315	2.29
427.523	2.26
427.73	2.21
427.937	2
428.144	2.29
428.351	2.1
428.558	2.17
428.765	2.34
428.972	2.41
429.179	2.26
429.386	2.55
429.593	2.42
429.8	2.48
430.007	2.5
430.214	2.37
430.421	2.25
430.628	2.32
430.835	2.24
431.042	2.21
431.249	2.38
431.456	2.29
431.662	2.42
431.869	2.44
432.076	2.49
432.283	2.42
432.49	2.51
432.697	2.32
432.903	2.31
433.11	2.5
433.317	2.53
433.524	2.45
433.73	2.44
433.937	2.3
434.144	2.15
434.35	2.19
434.557	2.2
434.764	2.21
434.97	2.25
435.177	2.28
435.384	2.09
435.59	2.14
435.797	2.17
436.003	2.28
436.21	2.16
436.416	2.32
436.623	2.24
436.829	2.07
437.036	2.05
437.242	2.16
437.449	2.09
437.655	2.2
437.862	2.4
438.068	2.38
438.275	2.36
438.481	2.34
438.687	2.33
438.894	2.42
439.1	2.38
439.307	2.38
439.513	2.46
439.719	2.53
439.926	2.41
440.132	2.49
440.338	2.42
440.544	2.45
440.751	2.32
440.957	2.37
441.163	2.25
441.369	2.24
441.575	2.14
441.782	2.22
441.988	2.15
442.194	2.29
442.4	2.26
442.606	2.24
442.812	2.22
443.018	2.2
443.224	2.11
443.431	2.14
443.637	2.3
443.843	2.24
444.049	2.33
444.255	2.27
444.461	2.27
444.667	2.09
444.873	2.03
445.079	2.05
445.284	2.04
445.49	2.02
445.696	2.02
445.902	2.04
446.108	2.01
446.314	2.04
446.52	2.12
446.726	2.21
446.931	2.28
447.137	2.16
447.343	2.12
447.549	1.98
447.755	1.93
447.96	1.9
448.166	1.98
448.372	2.06
448.578	2.12
448.783	2.1
448.989	2.15
449.195	2.1
449.4	2.1
449.606	2.12
449.812	2.08
450.017	2.11
450.223	2.12
450.428	2.05
450.634	2.08
450.84	2.12
451.045	2.08
451.251	2.16
451.456	2.19
451.662	2.13
451.867	2.19
452.073	2.08
452.278	1.98
452.483	1.99
452.689	2.03
452.894	2.03
453.1	2.14
453.305	2.18
453.51	2.21
453.716	2.11
453.921	2.13
454.127	2.06
454.332	2
454.537	1.99
454.742	2
454.948	1.9
455.153	1.95
455.358	1.98
455.563	1.92
455.769	1.96
455.974	1.88
456.179	1.84
456.384	1.75
456.589	1.83
456.795	1.78
457	1.88
457.205	1.81
457.41	1.91
457.615	1.83
457.82	1.81
458.025	1.77
458.23	1.84
458.435	1.78
458.64	1.67
458.845	1.74
459.05	1.7
459.255	1.64
459.46	1.69
459.665	1.84
459.87	1.79
460.075	1.93
460.28	1.98
460.485	2.01
460.69	2.01
460.895	2.13
461.099	2.07
461.304	1.99
461.509	1.92
461.714	1.95
461.919	1.88
462.123	1.86
462.328	1.9
462.533	1.97
462.738	1.95
462.942	1.85
463.147	1.89
463.352	1.87
463.556	1.95
463.761	1.91
463.966	1.95
464.17	1.98
464.375	2.08
464.58	2
464.784	2.01
464.989	2.07
465.193	2.08
465.398	2.07
465.602	2.07
465.807	1.97
466.011	1.92
466.216	1.83
466.42	1.92
466.625	1.94
466.829	1.93
467.034	2.03
467.238	2.04
467.443	1.99
467.647	1.91
467.851	2.04
468.056	2.02
468.26	2.08
468.464	2.03
