Data from Ofav_PP_Phys_360_Reflection_3.txt Node
Date: Tue Jul 27 19:09:01 EDT 2021
User: USUARIO
Spectrometer: FLMT01687
Trigger mode: 0
Integration Time (sec): 8.500000E-1
Scans to average: 2
Electric dark correction enabled: true
Nonlinearity correction enabled: false
Boxcar width: 2
XAxis mode: Wavelengths
Number of Pixels in Spectrum: 3648
>>>>>Begin Spectral Data<<<<<
179.494	-1638.52
179.716	-538.98
179.937	-370.61
180.158	-327.6
180.38	-268.47
180.601	-140.45
180.823	24.42
181.044	79.26
181.265	103.92
181.486	224.97
181.708	92.48
181.929	5.85
182.15	87.9
182.372	382.04
182.593	100.92
182.814	78.16
183.035	66.3
183.257	70.58
183.478	50.04
183.699	47.73
183.92	56.07
184.141	47
184.363	45.29
184.584	56.62
184.805	78.43
185.026	54.93
185.247	74.18
185.468	68.3
185.689	43.65
185.91	29.58
186.132	23.95
186.353	21.28
186.574	3.47
186.795	7.73
187.016	3.08
187.237	0.08
187.458	10.71
187.679	20.94
187.9	15.42
188.121	35.52
188.342	41.81
188.563	19.89
188.784	39.91
189.005	49.82
189.226	41.16
189.447	45.74
189.667	51.39
189.888	47.69
190.109	51.53
190.33	75.95
190.551	51.16
190.772	40.73
190.993	33.73
191.214	25.12
191.434	10.82
191.655	21.9
191.876	16.1
192.097	23.29
192.318	32.66
192.538	52.12
192.759	54.07
192.98	59.96
193.201	54.14
193.421	78.4
193.642	61.16
193.863	55.84
194.083	61.14
194.304	56.49
194.525	25.38
194.745	-23.2
194.966	-94.21
195.187	-118.59
195.407	-77.56
195.628	-28.32
195.848	18.31
196.069	70.92
196.29	136.81
196.51	87.89
196.731	49.05
196.951	72.15
197.172	51.5
197.392	51.65
197.613	65.65
197.833	80.97
198.054	84.82
198.274	61.39
198.495	58.4
198.715	64.82
198.936	53.18
199.156	38.51
199.377	71.97
199.597	92.09
199.817	48.2
200.038	-15.99
200.258	18.62
200.479	19.22
200.699	-8.6
200.919	-7.74
201.14	15.49
201.36	5.45
201.58	28.78
201.801	26.57
202.021	27.23
202.241	45.51
202.461	37.36
202.682	14.1
202.902	31.13
203.122	53.57
203.342	39.42
203.563	55.62
203.783	58.42
204.003	51.6
204.223	48.08
204.443	47.89
204.663	33.3
204.884	42.06
205.104	45.92
205.324	53.99
205.544	47.29
205.764	43.56
205.984	34.06
206.204	42.79
206.424	13.92
206.644	25.19
206.864	41.61
207.084	43.93
207.304	47.59
207.525	49.54
207.745	67.69
207.964	68.43
208.184	66.5
208.404	52.14
208.624	50.49
208.844	46.78
209.064	39.3
209.284	21.96
209.504	30.37
209.724	33.31
209.944	-37.95
210.164	-106.2
210.384	-44.68
210.604	-24.74
210.823	28.85
211.043	40.85
211.263	65.21
211.483	61.08
211.703	52.08
211.922	35.99
212.142	81.25
212.362	48.02
212.582	52.66
212.801	60.13
213.021	68.35
213.241	45.73
213.461	56.21
213.68	46.81
213.9	23.81
214.12	50.19
214.339	52.85
214.559	51.93
214.779	42.82
214.998	41.71
215.218	24.03
215.438	37.04
215.657	57.39
215.877	52.47
216.096	63.42
216.316	73.11
216.535	52.68
216.755	55.69
216.974	74.37
217.194	74.11
217.413	65.2
217.633	72.78
217.852	42.5
218.072	25.3
218.291	17.08
218.511	6.9
218.73	19.33
218.95	26.82
219.169	38.56
219.389	23.62
219.608	32.19
219.827	58.46
220.047	63.46
220.266	51.19
220.485	65.5
220.705	63.59
220.924	47.83
221.143	24.24
221.363	10.73
221.582	20.1
221.801	26.68
222.021	26.58
222.24	41.74
222.459	40.84
222.678	40.9
222.897	31.15
223.117	16.47
223.336	-5.87
223.555	3.03
223.774	-14.88
223.993	-12.83
224.213	-16.32
224.432	-2.59
224.651	21.7
224.87	22.1
225.089	17.64
225.308	34.62
225.527	51.44
225.746	42.78
225.965	50.38
226.184	42.78
226.404	37.12
226.623	10.15
226.842	5.88
227.061	0.91
227.28	6.64
227.499	14.63
227.718	24.96
227.936	28.12
228.155	41.77
228.374	57.13
228.593	50.18
228.812	61.6
229.031	68.06
229.25	61.99
229.469	39.47
229.688	36.28
229.907	-14.7
230.125	4.86
230.344	14.1
230.563	26.45
230.782	39.27
231.001	51.21
231.22	32.7
231.438	27.88
231.657	27.63
231.876	16.69
232.095	26.17
232.313	32.49
232.532	36.19
232.751	40.41
232.969	32.07
233.188	26.19
233.407	22.99
233.625	38.45
233.844	24.19
234.063	46.15
234.281	44.14
234.5	38.97
234.719	40.87
234.937	38.89
235.156	14.94
235.374	9.34
235.593	31.63
235.811	22.64
236.03	23.1
236.249	42.11
236.467	64.64
236.686	42.29
236.904	45
237.123	46.47
237.341	45.23
237.559	41.68
237.778	43.47
237.996	47.49
238.215	44.39
238.433	45.56
238.652	43.66
238.87	47.13
239.088	25.33
239.307	32.14
239.525	-0.14
239.743	-9.32
239.962	-2.37
240.18	21.67
240.398	17.37
240.617	25.82
240.835	44.5
241.053	44.06
241.271	19.54
241.49	24.57
241.708	36.12
241.926	26.13
242.144	-17.24
242.363	0.82
242.581	22.82
242.799	13.64
243.017	-13.21
243.235	22.31
243.453	27.22
243.672	8.61
243.89	6.64
244.108	29.46
244.326	29.77
244.544	6.78
244.762	2.41
244.98	24.2
245.198	-1.68
245.416	3.07
245.634	20.14
245.852	63.85
246.07	50.55
246.288	67
246.506	61.21
246.724	64.2
246.942	42.4
247.16	33.57
247.378	29.42
247.596	29.41
247.814	30.61
248.032	12.94
248.25	14.11
248.468	22.42
248.685	28.41
248.903	31.73
249.121	37.87
249.339	45.95
249.557	44.3
249.775	18.9
249.992	10.13
250.21	6.62
250.428	1.08
250.646	-16.36
250.863	8.79
251.081	31.59
251.299	58.34
251.517	58.7
251.734	79.85
251.952	69.62
252.17	56.79
252.387	29.55
252.605	63.37
252.823	58.58
253.04	71.72
253.258	65.68
253.475	56.04
253.693	52.54
253.911	54.26
254.128	47.56
254.346	49.42
254.563	69.06
254.781	57.97
254.998	58.96
255.216	32.21
255.433	37.52
255.651	22.98
255.868	14.72
256.086	16.48
256.303	24.15
256.521	27.48
256.738	40.22
256.956	44.99
257.173	41.22
257.39	43.5
257.608	37.48
257.825	53.74
258.043	49.34
258.26	51.77
258.477	57.64
258.695	64.78
258.912	53.74
259.129	55.33
259.346	61.56
259.564	65.07
259.781	72.67
259.998	41.27
260.216	56.82
260.433	51.83
260.65	54.14
260.867	36.49
261.084	52.3
261.302	25.69
261.519	33.74
261.736	21.62
261.953	38.69
262.17	35.25
262.387	46.11
262.604	52.46
262.822	70.59
263.039	60.99
263.256	65.11
263.473	74.58
263.69	76.92
263.907	58.92
264.124	76.36
264.341	63.42
264.558	46.41
264.775	21.35
264.992	49.74
265.209	45.65
265.426	60.26
265.643	65.27
265.86	64.06
266.077	43.61
266.294	43.8
266.51	31.42
266.727	42.42
266.944	51.85
267.161	37.44
267.378	5.65
267.595	3.18
267.812	-11.51
268.028	-16.63
268.245	0.5
268.462	43.16
268.679	35.2
268.896	36.88
269.112	20.88
269.329	37.03
269.546	31.37
269.763	23.79
269.979	21.99
270.196	42.09
270.413	28.18
270.629	37.7
270.846	60.69
271.063	60.21
271.279	57.51
271.496	58.9
271.712	45.98
271.929	27.91
272.146	45.71
272.362	31.02
272.579	24.54
272.795	38.39
273.012	37.86
273.228	20.52
273.445	23.62
273.661	30.49
273.878	7.02
274.094	4.98
274.311	16.24
274.527	11.79
274.744	-1.16
274.96	9.75
275.177	8.92
275.393	15.17
275.609	38.19
275.826	61.32
276.042	55.31
276.259	65.36
276.475	62.63
276.691	50.88
276.908	46.22
277.124	54.3
277.34	55.68
277.557	49.79
277.773	57.91
277.989	50.47
278.205	39.36
278.422	33.84
278.638	29.05
278.854	33.62
279.07	28.84
279.286	28.87
279.503	27.37
279.719	57.62
279.935	55.86
280.151	61.67
280.367	66.04
280.583	71.88
280.799	56.87
281.016	39.52
281.232	28.37
281.448	26.3
281.664	7.01
281.88	2.82
282.096	-0.67
282.312	2.54
282.528	-4.65
282.744	1.39
282.96	-0.53
283.176	19.32
283.392	29.35
283.608	41.08
283.824	34.29
284.04	8.53
284.256	16.96
284.471	9.3
284.687	7.82
284.903	16.82
285.119	42.6
285.335	36.8
285.551	38.85
285.767	38.43
285.982	26.59
286.198	13.11
286.414	6.6
286.63	12.77
286.846	-4.08
287.061	7.4
287.277	14.54
287.493	22.62
287.709	15.66
287.924	33.88
288.14	44.89
288.356	70.96
288.571	70.57
288.787	64.7
289.003	62.66
289.218	53.91
289.434	22.11
289.65	14.95
289.865	7.41
290.081	20.04
290.296	15.17
290.512	12.39
290.727	16.51
290.943	49.26
291.159	50.18
291.374	46.25
291.59	49.02
291.805	52.84
292.021	30.12
292.236	31.57
292.451	28.98
292.667	39.63
292.882	32.47
293.098	21.67
293.313	33.05
293.529	45.01
293.744	34.6
293.959	39.37
294.175	59.01
294.39	42.13
294.605	42.05
294.821	35.56
295.036	30.97
295.251	13.47
295.467	17.57
295.682	-13.14
295.897	1.32
296.112	16.8
296.328	25.77
296.543	31.18
296.758	41.42
296.973	50.91
297.188	39.15
297.404	30.36
297.619	28.25
297.834	31.99
298.049	24.76
298.264	36.67
298.479	46.09
298.694	46.11
298.909	39.45
299.125	33.7
299.34	13.4
299.555	18.33
299.77	27.8
299.985	31.58
300.2	32.53
300.415	44.44
300.63	27.96
300.845	18.98
301.06	6.73
301.275	16.28
301.49	22.47
301.704	37
301.919	38.22
302.134	41.84
302.349	35.45
302.564	43.92
302.779	31.62
302.994	31.29
303.209	36.41
303.423	35.18
303.638	13.52
303.853	27.58
304.068	34.44
304.283	40.64
304.497	47.45
304.712	54.84
304.927	54.48
305.142	48.6
305.356	23.95
305.571	28.72
305.786	38.46
306	24.09
306.215	32.81
306.43	37.55
306.644	47.75
306.859	38.9
307.074	58.62
307.288	54.71
307.503	64.42
307.717	48.36
307.932	34.65
308.147	32.81
308.361	42.95
308.576	34.22
308.79	37.77
309.005	42.55
309.219	16.55
309.434	-0.27
309.648	9.01
309.863	2.91
310.077	27.92
310.292	39.75
310.506	38.37
310.72	42.47
310.935	54.26
311.149	44.57
311.364	49.92
311.578	48.88
311.792	28.04
312.007	26.45
312.221	24.47
312.435	25.99
312.649	32.88
312.864	32.42
313.078	2.69
313.292	19.39
313.507	39.3
313.721	52.77
313.935	43.64
314.149	54.36
314.363	45.57
314.578	44.46
314.792	34.09
315.006	31.1
315.22	28.73
315.434	25
315.648	1.36
315.862	-4.96
316.077	-1.06
316.291	4.05
316.505	5.82
316.719	31.5
316.933	41.11
317.147	38.73
317.361	26.9
317.575	24.43
317.789	11.15
318.003	0.49
318.217	6.29
318.431	2.63
318.645	-0.12
318.859	-1.48
319.073	-3.77
319.287	-5.56
319.5	0.96
319.714	-5.64
319.928	8.74
320.142	0.99
320.356	22.25
320.57	43.43
320.784	46.11
320.997	42.22
321.211	56.48
321.425	48.92
321.639	18.42
321.853	23
322.066	17.87
322.28	-2.36
322.494	-2.61
322.707	14.55
322.921	11.22
323.135	9.75
323.349	16.09
323.562	16.86
323.776	7.08
323.989	-3.25
324.203	0.88
324.417	-1.93
324.63	9.5
324.844	26.37
325.057	23.73
325.271	21.48
325.485	24.75
325.698	15.67
325.912	16.05
326.125	41.78
326.339	46.41
326.552	59.95
326.766	84.37
326.979	73
327.193	58.25
327.406	64.55
327.619	51.04
327.833	31.89
328.046	48.77
328.26	48.76
328.473	33.72
328.686	31.45
328.9	36.49
329.113	18.71
329.326	3.36
329.54	17.29
329.753	37.03
329.966	43.56
330.179	53.63
330.393	67.91
330.606	57.91
330.819	45.73
331.032	34.27
331.246	41.9
331.459	32.17
331.672	34.55
331.885	35.35
332.098	43.16
332.311	44.66
332.525	44.57
332.738	31.58
332.951	35.1
333.164	17.45
333.377	6.99
333.59	9.75
333.803	21.39
334.016	15.1
334.229	20.35
334.442	32.09
334.655	33.41
334.868	35.02
335.081	42
335.294	59.34
335.507	39.15
335.72	42.65
335.933	24.84
336.146	17.83
336.359	-2.09
336.572	31.31
336.785	33
336.997	54.24
337.21	71.94
337.423	84.18
337.636	42.82
337.849	30.55
338.062	31.2
338.274	22.92
338.487	34.97
338.7	42.11
338.913	43.46
339.125	35.21
339.338	24.5
339.551	-8.13
339.763	-17.22
339.976	-4.24
340.189	3.52
340.402	8.2
340.614	9.89
340.827	14.16
341.039	1.36
341.252	-6.22
341.465	-38.5
341.677	-23.59
341.89	-26.13
342.102	3.73
342.315	11.57
342.527	38.89
342.74	37.01
342.952	17.67
343.165	23.83
343.377	29.07
343.59	19.09
343.802	20.01
344.015	40.81
344.227	37.3
344.44	21.74
344.652	38.07
344.864	33.84
345.077	32.36
345.289	17.23
345.502	30.43
345.714	21.62
345.926	20.39
346.139	15.73
346.351	31.25
346.563	19.27
346.775	27.08
346.988	34.55
347.2	35.02
347.412	24.31
347.624	33.76
347.837	11
348.049	24.72
348.261	28.94
348.473	29.99
348.685	38.68
348.897	56.23
349.11	45.56
349.322	40.27
349.534	50.03
349.746	54.58
349.958	50.11
350.17	47.09
350.382	47.93
350.594	30.71
350.806	25.17
351.018	32.29
351.23	18.45
351.442	19.9
351.654	41.5
351.866	27.47
352.078	16.61
352.29	25.32
352.502	21.39
352.714	28.98
352.926	35.85
353.138	50.11
353.35	50.59
353.561	56.79
353.773	36.94
353.985	21.87
354.197	-2.38
354.409	1.13
354.621	-2.52
354.832	12.44
355.044	17.86
355.256	31.35
355.468	24.33
355.679	44.18
355.891	42.88
356.103	44.08
356.314	47.31
356.526	64.79
356.738	51.49
356.949	49.67
357.161	45.72
357.373	41.22
357.584	26.73
357.796	38.93
358.008	42.15
358.219	48.82
358.431	44.07
358.642	43.58
358.854	39.87
359.065	27.96
359.277	31.23
359.488	41.75
359.7	38.12
359.911	30.99
360.123	43.11
360.334	31.76
360.546	13.8
360.757	28.18
360.969	27.58
361.18	29.64
361.391	32.94
361.603	38.95
361.814	43.57
362.025	35.12
362.237	31.43
362.448	34.05
362.659	26.71
362.871	17.7
363.082	31.52
363.293	25.91
363.504	26.66
363.716	32.89
363.927	21.84
364.138	15.85
364.349	19.86
364.56	16.51
364.772	19.75
364.983	22.82
365.194	18.97
365.405	18.38
365.616	10.37
365.827	15.12
366.038	27.14
366.25	20.74
366.461	12.63
366.672	20.8
366.883	15.28
367.094	6.38
367.305	12.73
367.516	11.39
367.727	31.67
367.938	32.85
368.149	39.49
368.36	52.16
368.571	45.49
368.781	33.37
368.992	23.03
369.203	7.9
369.414	11.57
369.625	19.66
369.836	12.29
370.047	20.83
370.258	33.76
370.468	29.37
370.679	17.95
370.89	16.47
371.101	19.41
371.312	22.44
371.522	16.64
371.733	28.22
371.944	41.55
372.155	45.4
372.365	32.2
372.576	39.94
372.787	38.13
372.997	45.7
373.208	38.11
373.419	46.1
373.629	40.64
373.84	47.08
374.05	29.6
374.261	28.19
374.472	24.88
374.682	24.77
374.893	24.03
375.103	31.73
375.314	39.02
375.524	47.17
375.735	42.22
375.945	36.18
376.156	33.84
376.366	19.39
376.577	1.79
376.787	13.06
376.997	11.47
377.208	12.53
377.418	22.33
377.629	30.71
377.839	30.69
378.049	27.22
378.26	26.87
378.47	31.41
378.68	35.79
378.89	25.03
379.101	19.22
379.311	17.32
379.521	8.2
379.732	-2.54
379.942	13.53
380.152	23.68
380.362	25.65
380.572	19.99
380.783	33.39
380.993	20.38
381.203	11.98
381.413	-0.37
381.623	10.96
381.833	5.66
382.043	20.77
382.253	21.82
382.463	34.12
382.674	43.82
382.884	48.71
383.094	34.11
383.304	35.08
383.514	33.58
383.724	14.94
383.934	13.31
384.144	9.88
384.353	8.62
384.563	6.95
384.773	15.82
384.983	16.61
385.193	23.21
385.403	24.4
385.613	24.92
385.823	24.77
386.033	26.95
386.242	32.87
386.452	31.39
386.662	34.56
386.872	34.51
387.082	32.43
387.291	17.09
387.501	18.99
387.711	13.98
387.921	10.88
388.13	8.77
388.34	14.32
388.55	13.06
388.759	9.09
388.969	11.37
389.179	11.77
389.388	14.17
389.598	15.51
389.807	16.43
390.017	11.23
390.227	10.26
390.436	9.86
390.646	5.77
390.855	4.43
391.065	4.34
391.274	5.88
391.484	3.84
391.693	6.27
391.903	7.75
392.112	8.65
392.322	7.57
392.531	7.21
392.74	6.05
392.95	6.35
393.159	7.58
393.369	7.04
393.578	8.28
393.787	8.86
393.997	8.84
394.206	9.35
394.415	10.12
394.625	9.87
394.834	9.14
395.043	9.43
395.252	9.06
395.462	10.37
395.671	9.84
395.88	10.92
396.089	11.04
396.298	10.44
396.508	9.63
396.717	9.94
396.926	9.34
397.135	8.49
397.344	9.05
397.553	8.88
397.762	8.15
397.971	8.05
398.181	7.99
398.39	7.38
398.599	7.28
398.808	7.97
399.017	8.23
399.226	8.85
399.435	9.21
399.644	9.65
399.853	9.69
400.062	9.82
400.27	9.34
400.479	8.8
400.688	8.57
400.897	8.54
401.106	8.29
401.315	8.6
401.524	8.85
401.733	8.76
401.941	8.73
402.15	8.63
402.359	8.43
402.568	8.32
402.777	8.03
402.985	7.83
403.194	7.96
403.403	8.1
403.612	8.01
403.82	8.24
404.029	8.38
404.238	8.43
404.446	8.17
404.655	8.32
404.864	8.32
405.072	8.33
405.281	8.09
405.489	8.03
405.698	7.97
405.906	7.89
406.115	7.61
406.324	7.63
406.532	7.64
406.741	7.65
406.949	7.69
407.158	7.74
407.366	7.69
407.574	7.82
407.783	7.65
407.991	7.63
408.2	7.57
408.408	7.75
408.617	7.66
408.825	7.68
409.033	7.68
409.242	7.8
409.45	7.59
409.658	7.57
409.867	7.57
410.075	7.43
410.283	7.38
410.491	7.34
410.7	7.31
410.908	7.3
411.116	7.36
411.324	7.29
411.533	7.37
411.741	7.19
411.949	7.16
412.157	7.1
412.365	7.32
412.573	7.21
412.781	7.3
412.99	7.32
413.198	7.47
413.406	7.22
413.614	7.27
413.822	7.26
414.03	7.2
414.238	6.9
414.446	6.9
414.654	6.89
414.862	7.04
415.07	6.95
415.278	7.11
415.486	7.02
415.694	6.94
415.902	6.9
416.109	7.06
416.317	7.19
416.525	7.17
416.733	7.22
416.941	7.13
417.149	6.95
417.357	6.87
417.564	6.89
417.772	6.87
417.98	6.89
418.188	7.21
418.395	6.99
418.603	7.02
418.811	7.15
419.019	7.06
419.226	6.91
419.434	7.08
419.642	7.2
419.849	6.97
420.057	7
420.265	6.96
420.472	6.76
420.68	6.63
420.887	6.84
421.095	6.82
421.302	6.71
421.51	6.73
421.717	6.65
421.925	6.54
422.132	6.59
422.34	6.67
422.547	6.73
422.755	6.88
422.962	6.85
423.17	6.87
423.377	6.89
423.585	7.02
423.792	6.93
423.999	7.01
424.207	6.8
424.414	6.61
424.621	6.47
424.829	6.48
425.036	6.32
425.243	6.45
425.451	6.57
425.658	6.56
425.865	6.48
426.072	6.5
426.28	6.44
426.487	6.52
426.694	6.51
426.901	6.63
427.108	6.62
427.315	6.75
427.523	6.57
427.73	6.43
427.937	6.28
428.144	6.39
428.351	6.02
428.558	6.2
428.765	6.31
428.972	6.31
429.179	6.1
429.386	6.38
429.593	6.2
429.8	6.21
430.007	6.22
430.214	6.32
430.421	6.39
430.628	6.43
430.835	6.44
431.042	6.34
431.249	6.39
431.456	6.39
431.662	6.59
431.869	6.56
432.076	6.79
432.283	6.69
432.49	6.61
432.697	6.45
432.903	6.66
433.11	6.75
433.317	6.7
433.524	6.72
433.73	6.62
433.937	6.36
434.144	6.27
434.35	6.41
434.557	6.32
434.764	6.4
434.97	6.4
435.177	6.38
435.384	6.32
435.59	6.37
435.797	6.38
436.003	6.46
436.21	6.36
436.416	6.2
436.623	6.12
436.829	5.99
437.036	5.9
437.242	5.96
437.449	6.07
437.655	6.3
437.862	6.52
438.068	6.51
438.275	6.53
438.481	6.51
438.687	6.36
438.894	6.4
439.1	6.45
439.307	6.38
439.513	6.48
439.719	6.61
439.926	6.47
440.132	6.62
440.338	6.59
440.544	6.48
440.751	6.3
440.957	6.25
441.163	6.07
441.369	6.09
441.575	6.12
441.782	6.31
441.988	6.35
442.194	6.38
442.4	6.53
442.606	6.63
442.812	6.58
443.018	6.47
443.224	6.43
443.431	6.22
443.637	6.24
443.843	6.11
444.049	6.25
444.255	6.3
444.461	6.28
444.667	6.14
444.873	6.16
445.079	6.25
445.284	6.26
445.49	6.34
445.696	6.33
445.902	6.34
446.108	6.2
446.314	6.11
446.52	6.2
446.726	6.22
446.931	6.14
447.137	6.16
447.343	6.17
447.549	6.06
447.755	6.01
447.96	6.06
448.166	6.09
448.372	6.18
448.578	6.13
448.783	6.21
448.989	6.26
449.195	6.21
449.4	6.16
449.606	6.15
449.812	6.03
450.017	6.04
450.223	6.02
450.428	5.96
450.634	5.92
450.84	6.01
451.045	6.08
451.251	6.09
451.456	6.11
451.662	6.17
451.867	6.19
452.073	6.06
452.278	6.15
452.483	6.16
452.689	6.27
452.894	6.29
453.1	6.27
453.305	6.25
453.51	6.27
453.716	6.07
453.921	6.1
454.127	6.18
454.332	6.12
454.537	6.17
454.742	6.23
454.948	6.15
455.153	6.12
455.358	6.11
455.563	5.96
455.769	6.04
455.974	6.07
456.179	6.08
456.384	6
456.589	6.17
456.795	6.16
457	6.14
457.205	6.01
457.41	6.09
457.615	6.02
457.82	5.95
458.025	5.95
458.23	6.14
458.435	6.1
458.64	5.96
458.845	5.99
459.05	5.83
459.255	5.87
459.46	5.91
459.665	6.11
459.87	6.1
460.075	6.27
460.28	6.18
460.485	6.22
460.69	6.15
460.895	6.23
461.099	6.18
461.304	6.15
461.509	6.06
461.714	6.14
461.919	6.1
462.123	6.09
462.328	6.14
462.533	6.2
462.738	6.14
462.942	6.08
463.147	6.1
463.352	6.05
463.556	6.03
463.761	5.99
463.966	5.98
464.17	6.09
464.375	6.13
464.58	6.1
464.784	6.19
464.989	6.34
465.193	6.23
465.398	6.28
465.602	6.38
465.807	6.34
466.011	6.22
466.216	6.17
466.42	6.18
466.625	6.09
466.829	6.03
467.034	6.22
467.238	6.35
467.443	6.46
467.647	6.51
467.851	6.55
468.056	6.39
468.26	6.34
468.464	6.17
468.669	6.21
