Data from Ofav_PP_Phys_358_Reflection_2.txt Node
Date: Tue Jul 27 19:06:55 EDT 2021
User: USUARIO
Spectrometer: FLMT01687
Trigger mode: 0
Integration Time (sec): 8.500000E-1
Scans to average: 2
Electric dark correction enabled: true
Nonlinearity correction enabled: false
Boxcar width: 2
XAxis mode: Wavelengths
Number of Pixels in Spectrum: 3648
>>>>>Begin Spectral Data<<<<<
179.494	-1300
179.716	-420.16
179.937	-290.95
180.158	-229.51
180.38	-242.01
180.601	-201.07
180.823	98.88
181.044	53.55
181.265	81.76
181.486	102.47
181.708	60.66
181.929	33.95
182.15	1.42
182.372	113.47
182.593	68.02
182.814	114.97
183.035	118.58
183.257	110.9
183.478	72.84
183.699	74.92
183.92	71.28
184.141	66.99
184.363	78.43
184.584	83.41
184.805	86.72
185.026	72.19
185.247	85.74
185.468	37.59
185.689	32.03
185.91	7.98
186.132	-11.06
186.353	10.56
186.574	18.58
186.795	34.49
187.016	33.02
187.237	6.57
187.458	-21.32
187.679	-9.52
187.9	-18.9
188.121	-7.32
188.342	45.11
188.563	73.68
188.784	77.12
189.005	92.16
189.226	93.57
189.447	71.58
189.667	76.64
189.888	86.41
190.109	92.37
190.33	97.53
190.551	88.88
190.772	56.27
190.993	44.32
191.214	40.87
191.434	29.03
191.655	50.37
191.876	52.88
192.097	56.99
192.318	56.33
192.538	91.77
192.759	62.59
192.98	50.76
193.201	43.1
193.421	36.43
193.642	11.26
193.863	8.63
194.083	16.62
194.304	18.94
194.525	5.95
194.745	-13.88
194.966	-39.46
195.187	-51.69
195.407	-40.39
195.628	-16.84
195.848	13.81
196.069	46.27
196.29	92.3
196.51	102.94
196.731	80.56
196.951	104.6
197.172	94.83
197.392	68.94
197.613	80.34
197.833	75.9
198.054	64.67
198.274	43.07
198.495	64.07
198.715	95.14
198.936	89.74
199.156	92.64
199.377	141.57
199.597	182.39
199.817	60.27
200.038	76.4
200.258	61.66
200.479	93.13
200.699	63.99
200.919	66.11
201.14	54.32
201.36	41.64
201.58	33.19
201.801	20.92
202.021	40.9
202.241	42.84
202.461	57.73
202.682	34.95
202.902	32.57
203.122	33.97
203.342	32.15
203.563	43.18
203.783	36.58
204.003	44.07
204.223	26.41
204.443	29.18
204.663	8.78
204.884	39.17
205.104	53.29
205.324	61
205.544	57.15
205.764	47.7
205.984	23.26
206.204	-2.79
206.424	13.7
206.644	33.17
206.864	33.87
207.084	43.01
207.304	44.87
207.525	40.7
207.745	41.4
207.964	57.12
208.184	65.4
208.404	55.41
208.624	50.57
208.844	49.65
209.064	31.3
209.284	19.23
209.504	25.73
209.724	3.25
209.944	-41.16
210.164	-30.53
210.384	-45.81
210.604	-48.11
210.823	16.44
211.043	21.14
211.263	12.77
211.483	24.73
211.703	24.77
211.922	28.06
212.142	61.94
212.362	40.77
212.582	13.06
212.801	38.12
213.021	15.51
213.241	-10.56
213.461	-5.12
213.68	17.99
213.9	-16.73
214.12	6.1
214.339	28.92
214.559	36.16
214.779	38.56
214.998	40.41
215.218	31.71
215.438	40.05
215.657	55.94
215.877	56.59
216.096	65.39
216.316	89.4
216.535	79.88
216.755	67.95
216.974	67.15
217.194	62.19
217.413	48.01
217.633	48.9
217.852	42.99
218.072	31.93
218.291	33.78
218.511	32.66
218.73	31.52
218.95	28.31
219.169	49.12
219.389	30.06
219.608	40.44
219.827	40.93
220.047	59.47
220.266	43.03
220.485	54.29
220.705	59.81
220.924	64.91
221.143	56.03
221.363	44.91
221.582	53.7
221.801	31.1
222.021	29.28
222.24	36.18
222.459	27.72
222.678	26.95
222.897	25.92
223.117	32.73
223.336	33.59
223.555	48.17
223.774	37.38
223.993	42.67
224.213	28.02
224.432	23.66
224.651	33.45
224.87	17.86
225.089	21.66
225.308	22.23
225.527	29.42
225.746	21.2
225.965	50.03
226.184	50.13
226.404	50.57
226.623	45.24
226.842	50.83
227.061	34.52
227.28	31.76
227.499	39.42
227.718	38.19
227.936	21.77
228.155	36.82
228.374	29.35
228.593	29.22
228.812	33.04
229.031	19.35
229.25	12.09
229.469	20.62
229.688	3.95
229.907	-35.85
230.125	11.18
230.344	13.98
230.563	27.51
230.782	40.29
231.001	53.49
231.22	50.45
231.438	40.82
231.657	31.21
231.876	19.66
232.095	23.66
232.313	37.19
232.532	50.03
232.751	52.33
232.969	58.11
233.188	75.95
233.407	62.55
233.625	68.69
233.844	46.39
234.063	57.32
234.281	44.65
234.5	40.34
234.719	49.46
234.937	48.59
235.156	31.37
235.374	17.29
235.593	18.28
235.811	12.56
236.03	20.45
236.249	15.48
236.467	33.4
236.686	25.03
236.904	23.38
237.123	19.68
237.341	32.9
237.559	23.39
237.778	35.7
237.996	29.73
238.215	43.71
238.433	40.06
238.652	40.38
238.87	42.59
239.088	26.33
239.307	22.87
239.525	4.53
239.743	-9.81
239.962	-6.63
240.18	12.65
240.398	14.21
240.617	28.98
240.835	50.39
241.053	47.23
241.271	50.57
241.49	42.59
241.708	51.2
241.926	52.95
242.144	39.11
242.363	39.38
242.581	41.3
242.799	15.99
243.017	9.2
243.235	34.73
243.453	41.57
243.672	52.27
243.89	54.11
244.108	44.33
244.326	43.14
244.544	39.85
244.762	28.73
244.98	42.17
245.198	54.08
245.416	53.02
245.634	59.54
245.852	59.95
246.07	63.4
246.288	56.02
246.506	48.06
246.724	41.47
246.942	51.02
247.16	41.75
247.378	38.56
247.596	41.64
247.814	40.35
248.032	19.75
248.25	25.21
248.468	39.89
248.685	37.67
248.903	30.43
249.121	63.5
249.339	74.04
249.557	55.3
249.775	44.28
249.992	29.37
250.21	6.53
250.428	-1.24
250.646	-22.6
250.863	-12.75
251.081	8.8
251.299	22.68
251.517	30.41
251.734	78.13
251.952	74.22
252.17	74.95
252.387	51.01
252.605	67.76
252.823	48.84
253.04	64.72
253.258	70.52
253.475	72.78
253.693	65.37
253.911	71.37
254.128	57.09
254.346	58.55
254.563	67.61
254.781	72.11
254.998	71.11
255.216	61.53
255.433	59.8
255.651	51.43
255.868	23.81
256.086	14.44
256.303	17.22
256.521	14.5
256.738	22.57
256.956	26.01
257.173	23.53
257.39	26.44
257.608	32.19
257.825	29.03
258.043	30.51
258.26	37.38
258.477	38.87
258.695	25.41
258.912	29.33
259.129	28.13
259.346	30.59
259.564	20.62
259.781	46.43
259.998	37.48
260.216	50.29
260.433	54.77
260.65	69.94
260.867	57.39
261.084	59.34
261.302	50.13
261.519	49.22
261.736	25.87
261.953	34.3
262.17	34.09
262.387	32.53
262.604	33.18
262.822	40.34
263.039	40.15
263.256	36.01
263.473	61.22
263.69	68.22
263.907	51.99
264.124	62.22
264.341	52.09
264.558	46.16
264.775	45.49
264.992	58.57
265.209	49.7
265.426	59.53
265.643	58.39
265.86	36.96
266.077	29.69
266.294	26.4
266.51	31.63
266.727	25.92
266.944	24.33
267.161	-13.42
267.378	-26.88
267.595	-28.85
267.812	-30.08
268.028	-12.13
268.245	29.85
268.462	40.62
268.679	17.3
268.896	26.76
269.112	14.57
269.329	18.05
269.546	25.44
269.763	22.75
269.979	35.45
270.196	40.17
270.413	53.13
270.629	56.74
270.846	71.41
271.063	55.03
271.279	65.06
271.496	58.57
271.712	34.65
271.929	39.91
272.146	48.54
272.362	53.69
272.579	50.1
272.795	65.31
273.012	59.4
273.228	56.42
273.445	46.46
273.661	48.9
273.878	33.93
274.094	38.1
274.311	42.06
274.527	39.95
274.744	30.62
274.96	32.09
275.177	22.56
275.393	6.51
275.609	11.8
275.826	27.07
276.042	50.48
276.259	66.55
276.475	57.33
276.691	52.18
276.908	50.57
277.124	34.65
277.34	36.11
277.557	37.14
277.773	32.58
277.989	35.2
278.205	32.69
278.422	21.26
278.638	18.76
278.854	32.53
279.07	21.89
279.286	26.36
279.503	22.55
279.719	50.57
279.935	52.34
280.151	53.75
280.367	48.53
280.583	55.98
280.799	56.3
281.016	51.43
281.232	54.25
281.448	62.87
281.664	52.63
281.88	37.66
282.096	37.67
282.312	35.76
282.528	25.43
282.744	33.33
282.96	38.58
283.176	51.15
283.392	57.84
283.608	67.97
283.824	45.88
284.04	31.03
284.256	18.53
284.471	20.19
284.687	9.6
284.903	36.29
285.119	31.84
285.335	33.93
285.551	21.99
285.767	32.84
285.982	12.68
286.198	31.56
286.414	35.45
286.63	50.82
286.846	42.71
287.061	38.06
287.277	31.72
287.493	30
287.709	8.63
287.924	18.79
288.14	30.66
288.356	51.6
288.571	62.04
288.787	59.47
289.003	64.78
289.218	55.65
289.434	25.99
289.65	33.87
289.865	25.49
290.081	19.35
290.296	20.13
290.512	26.2
290.727	21.17
290.943	30.72
291.159	53.27
291.374	55.06
291.59	58.77
291.805	45.37
292.021	44.52
292.236	39.01
292.451	29.59
292.667	26.31
292.882	32.52
293.098	26.26
293.313	26.42
293.529	42.27
293.744	35.89
293.959	39.54
294.175	55.48
294.39	47.44
294.605	43.39
294.821	40.14
295.036	25.81
295.251	8.03
295.467	6.72
295.682	-16.27
295.897	10.55
296.112	28.41
296.328	40.24
296.543	55.43
296.758	56.45
296.973	63.91
297.188	66.54
297.404	52.09
297.619	41.82
297.834	47.57
298.049	37.9
298.264	39
298.479	46.75
298.694	43.42
298.909	35
299.125	35.78
299.34	25.62
299.555	30.94
299.77	40.53
299.985	36.47
300.2	29.77
300.415	23.92
300.63	17.69
300.845	18.49
301.06	23.8
301.275	27.86
301.49	18.12
301.704	-0.25
301.919	7.89
302.134	26.8
302.349	26.72
302.564	43.12
302.779	46.12
302.994	41.57
303.209	27.89
303.423	24.26
303.638	2.89
303.853	-3.33
304.068	11.57
304.283	6.99
304.497	21.02
304.712	31.81
304.927	48.51
305.142	45.79
305.356	50.2
305.571	67.26
305.786	69.22
306	54.16
306.215	46.71
306.43	54.74
306.644	52.76
306.859	57.25
307.074	67.74
307.288	61.34
307.503	51.49
307.717	32.93
307.932	30.72
308.147	28.67
308.361	24.92
308.576	34.88
308.79	34.38
309.005	12.49
309.219	-1.35
309.434	9.03
309.648	12.75
309.863	7.43
310.077	25.7
310.292	34.95
310.506	41.52
310.72	32.34
310.935	37.83
311.149	55.17
311.364	61.99
311.578	48.34
311.792	55.72
312.007	47.27
312.221	41.43
312.435	50.46
312.649	50.88
312.864	54.68
313.078	73.49
313.292	75.95
313.507	55.57
313.721	76.88
313.935	57.07
314.149	50.85
314.363	49.18
314.578	45.58
314.792	32.56
315.006	36.51
315.22	24.74
315.434	10.68
315.648	8.59
315.862	7.24
316.077	-9.99
316.291	-4.43
316.505	-2.54
316.719	-3.88
316.933	3.17
317.147	5.61
317.361	9.25
317.575	11.38
317.789	16.67
318.003	18.96
318.217	26.81
318.431	29.28
318.645	40.98
318.859	31.54
319.073	17.02
319.287	11.2
319.5	11.64
319.714	-0.71
319.928	13.54
320.142	0.88
320.356	21.17
320.57	33.52
320.784	45.68
320.997	59.63
321.211	68.62
321.425	64.26
321.639	45.42
321.853	35.78
322.066	15.05
322.28	14.51
322.494	13.98
322.707	24.44
322.921	31.28
323.135	29.45
323.349	28.09
323.562	26.06
323.776	16.96
323.989	7.32
324.203	16.2
324.417	16.91
324.63	30.4
324.844	55.64
325.057	58.24
325.271	62.78
325.485	47.62
325.698	35.47
325.912	29.34
326.125	48.21
326.339	52.47
326.552	62.36
326.766	63.42
326.979	65.63
327.193	57.03
327.406	49
327.619	38.52
327.833	31.8
328.046	22.57
328.26	10.44
328.473	-6.98
328.686	3.06
328.9	14.45
329.113	0.98
329.326	3.46
329.54	37.65
329.753	36.08
329.966	52.95
330.179	72.49
330.393	73.25
330.606	45.99
330.819	47.01
331.032	38.83
331.246	46.42
331.459	45.05
331.672	53.98
331.885	56.28
332.098	61.95
332.311	57.8
332.525	42.62
332.738	28.95
332.951	36.04
333.164	32.76
333.377	24.08
333.59	44.78
333.803	49.8
334.016	40.7
334.229	26.66
334.442	32.86
334.655	31.34
334.868	35.2
335.081	36.57
335.294	49.88
335.507	68.91
335.72	75.23
335.933	58.06
336.146	58.91
336.359	50.35
336.572	47.08
336.785	32.91
336.997	47.22
337.21	83.01
337.423	85.41
337.636	62.3
337.849	64.75
338.062	61.98
338.274	55.24
338.487	57.7
338.7	55.8
338.913	55.84
339.125	60.64
339.338	35.02
339.551	19.62
339.763	22.21
339.976	28.62
340.189	9.74
340.402	10.23
340.614	15.76
340.827	18.16
341.039	-3.96
341.252	12.87
341.465	0.16
341.677	4.37
341.89	1.1
342.102	33.72
342.315	31.57
342.527	39.63
342.74	37.57
342.952	35.49
343.165	35.53
343.377	25.94
343.59	19.39
343.802	24.29
344.015	31.07
344.227	21.91
344.44	8.81
344.652	18.09
344.864	-5.2
345.077	-10.7
345.289	-9.17
345.502	6.43
345.714	2.56
345.926	4.5
346.139	5.01
346.351	8.46
346.563	1.21
346.775	6.26
346.988	10.72
347.2	21.62
347.412	30.95
347.624	42.49
347.837	30.41
348.049	39.42
348.261	20.53
348.473	24.33
348.685	39.62
348.897	45.94
349.11	29.82
349.322	43.26
349.534	36.47
349.746	32.98
349.958	36.98
350.17	48.33
350.382	45.13
350.594	39.91
350.806	36.55
351.018	42.38
351.23	47.98
351.442	37.23
351.654	70.31
351.866	44.78
352.078	27.46
352.29	11.66
352.502	15.16
352.714	9.74
352.926	17.29
353.138	34.2
353.35	41.52
353.561	51.51
353.773	45.01
353.985	41.86
354.197	32.2
354.409	36.26
354.621	33.15
354.832	39.02
355.044	39.16
355.256	48.62
355.468	46.84
355.679	51.79
355.891	53.89
356.103	69.19
356.314	55.65
356.526	56.17
356.738	55.84
356.949	37.04
357.161	39.3
357.373	37.88
357.584	38.05
357.796	39.29
358.008	54.46
358.219	45.74
358.431	35.19
358.642	35.41
358.854	38.1
359.065	23.92
359.277	29.39
359.488	45.12
359.7	43.92
359.911	39.25
360.123	51.54
360.334	43.28
360.546	41.21
360.757	49.31
360.969	56.94
361.18	50.56
361.391	47.89
361.603	45.03
361.814	36.45
362.025	35.3
362.237	33.99
362.448	36.4
362.659	38.36
362.871	38.58
363.082	33.02
363.293	36.89
363.504	43.74
363.716	37
363.927	21.41
364.138	13.18
364.349	4.25
364.56	-3.06
364.772	2.25
364.983	20.81
365.194	31.4
365.405	33.38
365.616	29.12
365.827	39.87
366.038	41.29
366.25	39.1
366.461	33.61
366.672	52.27
366.883	47
367.094	25.27
367.305	22.08
367.516	30.06
367.727	31.31
367.938	26.65
368.149	56.33
368.36	62.36
368.571	42.85
368.781	37.6
368.992	30.16
369.203	26.43
369.414	30.9
369.625	38.92
369.836	34.51
370.047	35.42
370.258	29.65
370.468	26.15
370.679	21.48
370.89	16.91
371.101	18.84
371.312	22.25
371.522	15.81
371.733	28.03
371.944	36.48
372.155	38.72
372.365	27.65
372.576	40.29
372.787	44.57
372.997	42.21
373.208	33.26
373.419	38.84
373.629	33.36
373.84	23.59
374.05	21.14
374.261	19.26
374.472	30.37
374.682	24.7
374.893	38.4
375.103	35.2
375.314	42.04
375.524	34.65
375.735	33.33
375.945	22.85
376.156	23.85
376.366	19.8
376.577	14.09
376.787	17.21
376.997	15.76
377.208	16.15
377.418	15.15
377.629	23.67
377.839	27.67
378.049	30.89
378.26	34.02
378.47	35.85
378.68	35.06
378.89	30.01
379.101	25.59
379.311	19.39
379.521	11.85
379.732	14.88
379.942	26.68
380.152	26.21
380.362	38.33
380.572	38.89
380.783	29.32
380.993	23.95
381.203	17.37
381.413	9.86
381.623	18.12
381.833	25.38
382.043	25.82
382.253	34.07
382.463	32.28
382.674	35.53
382.884	32.66
383.094	21.94
383.304	26.57
383.514	28.84
383.724	16.63
383.934	17.05
384.144	14.05
384.353	7.51
384.563	11.39
384.773	12.15
384.983	10.25
385.193	14.6
385.403	16.41
385.613	15.22
385.823	21.14
386.033	18.58
386.242	23.38
386.452	19.01
386.662	23.18
386.872	21.58
387.082	23.22
387.291	13.42
387.501	16.42
387.711	13
387.921	13.26
388.13	15.89
388.34	22.1
388.55	22.09
388.759	18.47
388.969	17.76
389.179	14.08
389.388	14.76
389.598	12.75
389.807	13.52
390.017	12.89
390.227	15.24
390.436	15.36
390.646	15.81
390.855	12.18
391.065	10.53
391.274	9.62
391.484	6.99
391.693	6.91
391.903	10.63
392.112	11.43
392.322	10.77
392.531	10.81
392.74	10.3
392.95	9.03
393.159	8.86
393.369	8.66
393.578	9.3
393.787	8.8
393.997	9.77
394.206	11.61
394.415	11.49
394.625	10.18
394.834	10.11
395.043	10.17
395.252	8.61
395.462	10.04
395.671	11.07
395.88	11.83
396.089	12.11
396.298	12.69
396.508	11.93
396.717	11.94
396.926	11.48
397.135	10.41
397.344	10.67
397.553	11.27
397.762	10.91
397.971	11.24
398.181	11.58
398.39	11.24
398.599	10.64
398.808	10.69
399.017	10.62
399.226	10.86
399.435	10.66
399.644	10.65
399.853	10.79
400.062	11.24
400.27	10.94
400.479	10.67
400.688	10.71
400.897	10.62
401.106	10.26
401.315	10.71
401.524	10.9
401.733	10.73
401.941	10.81
402.15	10.67
402.359	10.24
402.568	10.23
402.777	10.03
402.985	9.9
403.194	10.22
403.403	10.43
403.612	10.34
403.82	10.5
404.029	10.58
404.238	10.49
404.446	10.5
404.655	10.58
404.864	10.56
405.072	10.52
405.281	10.38
405.489	10.11
405.698	10.14
405.906	10.14
406.115	9.84
406.324	9.58
406.532	9.5
406.741	9.53
406.949	9.52
407.158	9.58
407.366	9.71
407.574	9.82
407.783	9.63
407.991	9.61
408.2	9.69
408.408	9.7
408.617	9.7
408.825	9.7
409.033	9.65
409.242	9.6
409.45	9.56
409.658	9.54
409.867	9.5
410.075	9.39
410.283	9.33
410.491	9.29
410.7	9.15
410.908	9.15
411.116	9.22
411.324	9.24
411.533	9.22
411.741	9.14
411.949	9.06
412.157	9
412.365	9.23
412.573	9.12
412.781	9.27
412.99	9.3
413.198	9.38
413.406	9.26
413.614	9.34
413.822	9.32
414.03	9.26
414.238	9.16
414.446	9.01
414.654	8.98
414.862	8.94
415.07	8.9
415.278	8.86
415.486	8.73
415.694	8.7
415.902	8.67
416.109	8.63
416.317	8.7
416.525	8.75
416.733	8.68
416.941	8.76
417.149	8.66
417.357	8.59
417.564	8.51
417.772	8.53
417.98	8.52
418.188	8.75
418.395	8.68
418.603	8.65
418.811	8.57
419.019	8.37
419.226	8.34
419.434	8.48
419.642	8.64
419.849	8.65
420.057	8.59
420.265	8.63
420.472	8.52
420.68	8.39
420.887	8.56
421.095	8.66
421.302	8.44
421.51	8.39
421.717	8.33
421.925	8.07
422.132	8.15
422.34	8.14
422.547	8.13
422.755	8.18
422.962	8.17
423.17	8.16
423.377	8.26
423.585	8.38
423.792	8.47
423.999	8.55
424.207	8.54
424.414	8.4
424.621	8.18
424.829	7.96
425.036	7.78
425.243	7.67
425.451	7.58
425.658	7.66
425.865	7.9
426.072	8.04
426.28	7.88
426.487	7.99
426.694	7.92
426.901	7.87
427.108	7.92
427.315	7.98
427.523	7.81
427.73	7.61
427.937	7.49
428.144	7.48
428.351	7.58
428.558	8.04
428.765	8.28
428.972	8.3
429.179	8.09
429.386	8.07
429.593	7.8
429.8	7.77
430.007	7.76
430.214	7.84
430.421	7.93
430.628	7.99
430.835	8.09
431.042	8.02
431.249	8.24
431.456	8.3
431.662	8.33
431.869	8.29
432.076	8.39
432.283	8.28
432.49	8.2
432.697	8.25
432.903	8.29
433.11	8.41
433.317	8.36
433.524	8.23
433.73	8.13
433.937	7.97
434.144	7.86
434.35	7.94
434.557	8.01
434.764	7.98
434.97	8.1
435.177	8.11
435.384	7.94
435.59	8.01
435.797	7.94
436.003	8.1
436.21	7.96
436.416	8.11
436.623	7.96
436.829	7.95
437.036	7.79
437.242	7.84
437.449	7.8
437.655	7.96
437.862	8
438.068	7.95
438.275	8.04
438.481	7.96
438.687	7.94
438.894	8.15
439.1	8.18
439.307	8.11
439.513	8.27
439.719	8.32
439.926	8.09
440.132	8.2
440.338	8.12
440.544	7.97
440.751	7.71
440.957	7.83
441.163	7.61
441.369	7.8
441.575	7.89
441.782	8.25
441.988	8.13
442.194	8.34
442.4	8.32
442.606	8.35
442.812	8.18
443.018	8.17
443.224	7.97
443.431	7.88
443.637	7.95
443.843	7.82
444.049	7.91
444.255	7.95
444.461	7.87
444.667	7.61
444.873	7.73
445.079	7.78
445.284	7.85
445.49	7.98
445.696	8.11
445.902	8.08
446.108	8.05
446.314	7.97
446.52	7.98
446.726	7.99
446.931	7.95
447.137	7.89
447.343	7.83
447.549	7.72
447.755	7.62
447.96	7.67
448.166	7.7
448.372	7.84
448.578	7.87
448.783	8.1
448.989	8.14
449.195	8.07
449.4	8.01
449.606	7.98
449.812	7.83
450.017	7.74
450.223	7.71
450.428	7.68
450.634	7.73
450.84	7.75
451.045	7.91
451.251	7.97
451.456	8.05
451.662	8.05
451.867	8.04
452.073	7.94
452.278	7.93
452.483	7.86
452.689	7.9
452.894	7.9
453.1	7.72
453.305	7.76
453.51	7.88
453.716	7.83
453.921	7.93
454.127	8.05
454.332	7.99
454.537	7.93
454.742	7.85
454.948	7.69
455.153	7.79
455.358	7.89
455.563	7.8
455.769	7.87
455.974	7.94
456.179	7.79
456.384	7.6
456.589	7.7
456.795	7.74
457	7.68
457.205	7.66
457.41	7.8
457.615	7.68
457.82	7.61
458.025	7.57
458.23	7.7
458.435	7.63
458.64	7.62
458.845	7.73
459.05	7.72
459.255	7.71
459.46	7.75
459.665	7.78
459.87	7.69
460.075	7.86
460.28	7.81
460.485	7.87
460.69	7.89
460.895	8.02
461.099	7.97
461.304	7.96
461.509	7.96
461.714	8.01
461.919	8.07
462.123	8.04
462.328	8.15
462.533	8.15
462.738	8.17
462.942	7.95
463.147	8.05
463.352	7.9
463.556	7.91
463.761	7.87
463.966	7.93
464.17	7.97
464.375	8.12
464.58	8.1
464.784	8.12
464.989	8.15
465.193	8.08
465.398	8.02
465.602	8.07
465.807	8.04
466.011	7.99
466.216	7.94
466.42	8.05
466.625	8.02
466.829	8.08
467.034	8.24
467.238	8.29
