Data from Ofav_PP_2HS2_Reflection_3.txt Node
Date: Tue Jul 27 19:03:00 EDT 2021
User: USUARIO
Spectrometer: FLMT01687
Trigger mode: 0
Integration Time (sec): 8.500000E-1
Scans to average: 2
Electric dark correction enabled: true
Nonlinearity correction enabled: false
Boxcar width: 2
XAxis mode: Wavelengths
Number of Pixels in Spectrum: 3648
>>>>>Begin Spectral Data<<<<<
179.494	-1056.3
179.716	-302.69
179.937	-185.79
180.158	-147.16
180.38	-151.94
180.601	-159.67
180.823	88.35
181.044	77.1
181.265	49.2
181.486	-63.92
181.708	-54.52
181.929	84.83
182.15	73.7
182.372	-8.64
182.593	17.77
182.814	36.28
183.035	53.66
183.257	48.64
183.478	45.4
183.699	29.39
183.92	31.24
184.141	22.72
184.363	26.38
184.584	42.78
184.805	72.28
185.026	65.56
185.247	91.37
185.468	72.52
185.689	50.91
185.91	19.22
186.132	21.26
186.353	10.39
186.574	10.18
186.795	12.71
187.016	22.86
187.237	24.27
187.458	28.29
187.679	59.15
187.9	54.1
188.121	43.99
188.342	43.11
188.563	68.68
188.784	39.04
189.005	57.88
189.226	65.16
189.447	66.27
189.667	52.58
189.888	64.35
190.109	67.8
190.33	52.71
190.551	22.19
190.772	19.72
190.993	7.81
191.214	5.82
191.434	23.94
191.655	41.25
191.876	47.33
192.097	53.66
192.318	45.86
192.538	28.74
192.759	30.54
192.98	31.31
193.201	44.72
193.421	46.68
193.642	35.11
193.863	20.1
194.083	23.17
194.304	-2
194.525	-18.41
194.745	-34.71
194.966	-43.52
195.187	-102.83
195.407	-42.41
195.628	-28.1
195.848	-1.05
196.069	-7.97
196.29	36.19
196.51	44.6
196.731	56.11
196.951	46.5
197.172	37.05
197.392	54.72
197.613	24.13
197.833	6.07
198.054	23.88
198.274	18.15
198.495	1.17
198.715	0.61
198.936	-0.06
199.156	34.32
199.377	77.96
199.597	37.26
199.817	15.29
200.038	1.42
200.258	-123.72
200.479	-105.34
200.699	-37.34
200.919	-23.01
201.14	2.78
201.36	11.57
201.58	42.71
201.801	29.19
202.021	29.12
202.241	39.07
202.461	35.88
202.682	22.85
202.902	20.52
203.122	23.18
203.342	-14.24
203.563	21.87
203.783	21.07
204.003	13.36
204.223	-2.97
204.443	-17.26
204.663	-91.48
204.884	-55.9
205.104	-17.57
205.324	3.78
205.544	45.97
205.764	53.52
205.984	54.38
206.204	51.43
206.424	27.15
206.644	3.9
206.864	12.81
207.084	10.78
207.304	18.67
207.525	24.88
207.745	34.28
207.964	29.75
208.184	29.54
208.404	34.28
208.624	29.21
208.844	34.22
209.064	46.1
209.284	25.99
209.504	26.92
209.724	35.66
209.944	-17.43
210.164	-66.3
210.384	-45.75
210.604	-78.93
210.823	-1.19
211.043	25.35
211.263	41.29
211.483	55.77
211.703	53.68
211.922	61.58
212.142	59.63
212.362	32.93
212.582	16.45
212.801	26.77
213.021	20.2
213.241	9.4
213.461	-3.84
213.68	8.52
213.9	36.78
214.12	24.07
214.339	30.51
214.559	39.2
214.779	37.34
214.998	19.8
215.218	-7.83
215.438	11.32
215.657	23.14
215.877	14.25
216.096	10.43
216.316	30.08
216.535	12.53
216.755	1.7
216.974	35.72
217.194	43.78
217.413	34.93
217.633	29.61
217.852	20.49
218.072	-4.91
218.291	-19.75
218.511	-7.79
218.73	11.79
218.95	3.69
219.169	9.01
219.389	7.75
219.608	-12.5
219.827	-35.07
220.047	-20.8
220.266	33.67
220.485	43.37
220.705	72.01
220.924	74.08
221.143	50.75
221.363	36.62
221.582	45.55
221.801	27.37
222.021	47.17
222.24	61.19
222.459	52.38
222.678	37.39
222.897	26.53
223.117	-0.72
223.336	-11.43
223.555	2.57
223.774	16.06
223.993	22.74
224.213	6.92
224.432	6.92
224.651	41.19
224.87	31.8
225.089	25.48
225.308	42.95
225.527	52.46
225.746	28.16
225.965	5.75
226.184	9.79
226.404	-7.14
226.623	-33.35
226.842	-7.44
227.061	-0.45
227.28	2.43
227.499	18.96
227.718	24.17
227.936	21.16
228.155	33.15
228.374	38.22
228.593	27.91
228.812	30.53
229.031	22.09
229.25	11.38
229.469	-11.86
229.688	-19.57
229.907	-35.21
230.125	-13.67
230.344	-9.97
230.563	19.11
230.782	25.32
231.001	27.18
231.22	27.3
231.438	30.2
231.657	6.99
231.876	1.78
232.095	20.93
232.313	22.6
232.532	25.21
232.751	25.46
232.969	21.85
233.188	13.23
233.407	7.82
233.625	24
233.844	33.89
234.063	45.08
234.281	52.47
234.5	45.15
234.719	47.54
234.937	34.75
235.156	28.28
235.374	26.13
235.593	29.54
235.811	14.85
236.03	15.75
236.249	6.98
236.467	-12.18
236.686	-3.56
236.904	9.88
237.123	6.77
237.341	21.44
237.559	23.55
237.778	31.18
237.996	7.45
238.215	13.35
238.433	25.17
238.652	29.1
238.87	23.44
239.088	17.67
239.307	35.4
239.525	12.67
239.743	-5.01
239.962	-2.63
240.18	19.09
240.398	0.99
240.617	-1.23
240.835	19.02
241.053	19.65
241.271	13.59
241.49	27.3
241.708	27.11
241.926	11.19
242.144	5.98
242.363	-0.04
242.581	21.1
242.799	21.77
243.017	16.1
243.235	25.76
243.453	42.13
243.672	18.76
243.89	3.35
244.108	17.61
244.326	18.75
244.544	16.47
244.762	15.29
244.98	54.34
245.198	39.21
245.416	33.14
245.634	38
245.852	63.45
246.07	33.19
246.288	41.83
246.506	36.98
246.724	25.27
246.942	16.52
247.16	15.18
247.378	10.89
247.596	29.34
247.814	22.85
248.032	5.16
248.25	-0.03
248.468	1.83
248.685	-8.56
248.903	-6.56
249.121	12.23
249.339	15.26
249.557	15.81
249.775	-20.67
249.992	-13.41
250.21	-14.57
250.428	-27.2
250.646	-28
250.863	27.09
251.081	34.93
251.299	46.14
251.517	64.59
251.734	86.99
251.952	36.18
252.17	24.88
252.387	-10.35
252.605	-12.18
252.823	-14.75
253.04	5.63
253.258	21.27
253.475	29.1
253.693	53.38
253.911	58.7
254.128	53.14
254.346	45.34
254.563	41.2
254.781	2.75
254.998	-4.3
255.216	-29.27
255.433	-21.41
255.651	-11.87
255.868	5.61
256.086	-1.62
256.303	6.81
256.521	15.33
256.738	20.27
256.956	18.32
257.173	31.52
257.39	37.28
257.608	32.34
257.825	27.22
258.043	19.77
258.26	17.78
258.477	17.69
258.695	13.59
258.912	19.4
259.129	25.81
259.346	13.33
259.564	35.9
259.781	50.92
259.998	33.62
260.216	37.63
260.433	45.29
260.65	38.32
260.867	31.88
261.084	44.2
261.302	41.54
261.519	33.47
261.736	23.37
261.953	28.64
262.17	25.91
262.387	23.37
262.604	20.97
262.822	37.05
263.039	35.78
263.256	41.1
263.473	47.08
263.69	67.82
263.907	27.64
264.124	38.34
264.341	37.35
264.558	44.08
264.775	37.54
264.992	56.68
265.209	44.34
265.426	43.23
265.643	38.03
265.86	39.36
266.077	39.03
266.294	43.38
266.51	52.96
266.727	44.73
266.944	34.28
267.161	31.84
267.378	25.17
267.595	33.12
267.812	48.31
268.028	64.62
268.245	64.25
268.462	64.7
268.679	41.37
268.896	32.36
269.112	6.97
269.329	-2.45
269.546	11.81
269.763	-3.47
269.979	-6.06
270.196	16.19
270.413	26.84
270.629	21.48
270.846	45.53
271.063	42.92
271.279	40.56
271.496	41.71
271.712	42.8
271.929	30.57
272.146	18.55
272.362	28.19
272.579	36.2
272.795	40.18
273.012	34.78
273.228	39.72
273.445	40.81
273.661	21.61
273.878	9.47
274.094	11.42
274.311	18.14
274.527	14.1
274.744	17.19
274.96	4.05
275.177	-9.76
275.393	-18.78
275.609	-8.36
275.826	3.38
276.042	28.14
276.259	38.78
276.475	33.29
276.691	27.08
276.908	19.25
277.124	22.18
277.34	25.72
277.557	24.11
277.773	30.99
277.989	40.67
278.205	38.52
278.422	40.44
278.638	41.07
278.854	42.59
279.07	48.35
279.286	39.89
279.503	26.99
279.719	39.43
279.935	37.9
280.151	36.52
280.367	32.53
280.583	48.08
280.799	39.3
281.016	35.68
281.232	23.02
281.448	30.88
281.664	22.17
281.88	15.02
282.096	10.4
282.312	10.96
282.528	5.38
282.744	-6.85
282.96	14.9
283.176	34.17
283.392	39.81
283.608	49.82
283.824	48.17
284.04	25.55
284.256	21.29
284.471	13.36
284.687	2.62
284.903	4.9
285.119	13.13
285.335	11.08
285.551	15.76
285.767	32.11
285.982	17.78
286.198	13.2
286.414	-4.7
286.63	8.09
286.846	0.93
287.061	10.75
287.277	5.1
287.493	-7.81
287.709	-15.48
287.924	1.66
288.14	8.87
288.356	31.56
288.571	47.57
288.787	49.89
289.003	21.81
289.218	23.94
289.434	9.28
289.65	14.69
289.865	-8.48
290.081	20.42
290.296	0.4
290.512	4.66
290.727	21.48
290.943	43.28
291.159	50.8
291.374	70.83
291.59	66.79
291.805	48.37
292.021	46.06
292.236	32.92
292.451	35.22
292.667	35.15
292.882	28.56
293.098	28.94
293.313	49.21
293.529	54.86
293.744	40.99
293.959	51.92
294.175	50.13
294.39	28.3
294.605	24.74
294.821	31.24
295.036	20.26
295.251	20.59
295.467	24.9
295.682	18.05
295.897	20.95
296.112	37.55
296.328	36.23
296.543	46.48
296.758	39.65
296.973	38.02
297.188	40.55
297.404	29.27
297.619	21.75
297.834	19.9
298.049	23.84
298.264	12.19
298.479	19.31
298.694	15.65
298.909	18.12
299.125	11.24
299.34	9.5
299.555	16.56
299.77	20.58
299.985	24.45
300.2	18.51
300.415	22.7
300.63	17.15
300.845	27.87
301.06	7.06
301.275	16.39
301.49	9.68
301.704	-13.07
301.919	-2.05
302.134	9.78
302.349	21.14
302.564	22.22
302.779	36.28
302.994	30.65
303.209	30.89
303.423	28.45
303.638	11.88
303.853	2.22
304.068	2.63
304.283	9.44
304.497	-3.75
304.712	16.52
304.927	18.7
305.142	19.08
305.356	-11.45
305.571	3.6
305.786	-3.51
306	-14.45
306.215	-9.1
306.43	4.11
306.644	15.79
306.859	23.23
307.074	39.48
307.288	31.99
307.503	29.79
307.717	17.6
307.932	12.49
308.147	19.16
308.361	29.39
308.576	35.34
308.79	34.23
309.005	31.23
309.219	13.04
309.434	9.37
309.648	3.65
309.863	3.47
310.077	12.77
310.292	23.34
310.506	16.97
310.72	6.48
310.935	-1.91
311.149	-4.29
311.364	-21.68
311.578	-0.04
311.792	18.3
312.007	30.19
312.221	31.8
312.435	31.55
312.649	30.29
312.864	32.5
313.078	32.04
313.292	25.29
313.507	30.99
313.721	32.88
313.935	31.36
314.149	28.31
314.363	24.06
314.578	23
314.792	23.94
315.006	25.09
315.22	33.44
315.434	36.71
315.648	38.39
315.862	40.41
316.077	38.22
316.291	39.59
316.505	40.45
316.719	34.02
316.933	35.67
317.147	24.23
317.361	11.84
317.575	-6.5
317.789	-12.62
318.003	-40.39
318.217	-21.34
318.431	-23.17
318.645	-17.24
318.859	-1.19
319.073	0.67
319.287	0.65
319.5	-0.21
319.714	-10.41
319.928	-17.24
320.142	-18.2
320.356	0.96
320.57	3.91
320.784	22.83
320.997	26.31
321.211	38.43
321.425	29.87
321.639	33.72
321.853	29.98
322.066	26.44
322.28	9.99
322.494	18.28
322.707	18.83
322.921	21.68
323.135	17.04
323.349	33.49
323.562	31.19
323.776	26
323.989	11.68
324.203	13.9
324.417	-20.98
324.63	-2.31
324.844	-5.8
325.057	-7.66
325.271	-5.96
325.485	5.46
325.698	-6.44
325.912	1.88
326.125	21.61
326.339	28.53
326.552	25.03
326.766	27.21
326.979	29.93
327.193	16.14
327.406	11.21
327.619	11.17
327.833	10.49
328.046	13.6
328.26	20.3
328.473	15.68
328.686	25.33
328.9	33.2
329.113	30.1
329.326	8.17
329.54	14.81
329.753	14.04
329.966	11.88
330.179	11.55
330.393	34.09
330.606	29.09
330.819	31.85
331.032	36.69
331.246	32.77
331.459	31
331.672	21.19
331.885	19.23
332.098	18.46
332.311	22.97
332.525	22.53
332.738	33.39
332.951	35.04
333.164	31.63
333.377	18.89
333.59	23.54
333.803	17.07
334.016	3.84
334.229	0.12
334.442	21.98
334.655	26.5
334.868	37.5
335.081	47.66
335.294	54.92
335.507	50.28
335.72	33.52
335.933	6.7
336.146	1.51
336.359	-2.66
336.572	-4.63
336.785	0.6
336.997	26.12
337.21	46.31
337.423	56.81
337.636	43.11
337.849	38.43
338.062	25.67
338.274	28.01
338.487	30.45
338.7	36.55
338.913	38.46
339.125	50.41
339.338	32
339.551	21.27
339.763	23.41
339.976	32.21
340.189	10.85
340.402	6.17
340.614	-7.44
340.827	-8.37
341.039	-37.59
341.252	-34.39
341.465	-46.92
341.677	-31.66
341.89	-15.81
342.102	20.53
342.315	27.84
342.527	38.42
342.74	42.86
342.952	21.64
343.165	25.16
343.377	23.11
343.59	15.82
343.802	8.04
344.015	19.32
344.227	12.44
344.44	-9.7
344.652	-3.67
344.864	-6.97
345.077	6.74
345.289	5.7
345.502	15.24
345.714	15
345.926	14.03
346.139	17.06
346.351	15.05
346.563	12.88
346.775	6.27
346.988	6.67
347.2	-2.98
347.412	9.7
347.624	-0.6
347.837	-13.5
348.049	-7.59
348.261	-7.28
348.473	-21.6
348.685	-9.02
348.897	14.41
349.11	20.25
349.322	12.67
349.534	25.83
349.746	30.87
349.958	26.8
350.17	28.05
350.382	31.31
350.594	24.76
350.806	33.24
351.018	22.34
351.23	23.64
351.442	16.84
351.654	36.54
351.866	24.77
352.078	34.31
352.29	25.39
352.502	32.83
352.714	19.79
352.926	28.33
353.138	28.07
353.35	39.57
353.561	38.8
353.773	43.53
353.985	16.46
354.197	11.64
354.409	8.89
354.621	14.28
354.832	10.77
355.044	21.7
355.256	31.74
355.468	36.11
355.679	40.94
355.891	43.32
356.103	34.87
356.314	30.54
356.526	26.52
356.738	8.85
356.949	10.53
357.161	33.53
357.373	28.09
357.584	24.37
357.796	33.81
358.008	38.73
358.219	34.19
358.431	20.2
358.642	17.96
358.854	16.76
359.065	2.43
359.277	5.95
359.488	24.66
359.7	31.53
359.911	38.48
360.123	55.9
360.334	42.12
360.546	39.65
360.757	39.14
360.969	13.82
361.18	2.47
361.391	9.48
361.603	13.63
361.814	11.75
362.025	30.3
362.237	33.34
362.448	28.74
362.659	9.9
362.871	11.79
363.082	3.68
363.293	2.97
363.504	-1.18
363.716	5.76
363.927	-16.16
364.138	-10.18
364.349	-13.04
364.56	-7.73
364.772	3.26
364.983	17.22
365.194	10.55
365.405	18.18
365.616	10.21
365.827	14.36
366.038	18.91
366.25	11.34
366.461	2.42
366.672	8.94
366.883	15.2
367.094	11.98
367.305	17.37
367.516	14.04
367.727	18.05
367.938	4.68
368.149	2.22
368.36	11.2
368.571	11.48
368.781	15.01
368.992	18.61
369.203	11.64
369.414	15.15
369.625	14.72
369.836	6.91
370.047	-2.2
370.258	3.1
370.468	4.34
370.679	8.93
370.89	8.32
371.101	7.73
371.312	11.65
371.522	-2.05
371.733	6.48
371.944	10.33
372.155	17.15
372.365	8.39
372.576	16.39
372.787	8.2
372.997	14.13
373.208	13.4
373.419	18.36
373.629	17.45
373.84	19.74
374.05	14.12
374.261	14.98
374.472	17.66
374.682	19.14
374.893	24.37
375.103	23.68
375.314	21.07
375.524	14.33
375.735	9.99
375.945	-3.64
376.156	3.89
376.366	5.09
376.577	1.43
376.787	3.7
376.997	8.26
377.208	4.81
377.418	15.16
377.629	24.95
377.839	31.1
378.049	35.39
378.26	45.21
378.47	31.01
378.68	18.41
378.89	4.26
379.101	-4.92
379.311	-12.39
379.521	-14.9
379.732	2.22
379.942	22.68
380.152	22.22
380.362	25.7
380.572	20.59
380.783	22.47
380.993	13.51
381.203	11.45
381.413	8.17
381.623	10.05
381.833	7.15
382.043	7.47
382.253	7.7
382.463	13.23
382.674	19.5
382.884	15.63
383.094	14.19
383.304	14.31
383.514	10.23
383.724	3.19
383.934	-2.03
384.144	-7.36
384.353	0.14
384.563	0.49
384.773	5.97
384.983	9.93
385.193	12.46
385.403	4.93
385.613	3.62
385.823	1.09
386.033	3.57
386.242	13.55
386.452	11.96
386.662	18.02
386.872	17.72
387.082	14.42
387.291	5.63
387.501	10.38
387.711	5.21
387.921	9.42
388.13	11.81
388.34	13.66
388.55	15.6
388.759	11.48
388.969	10.64
389.179	9.43
389.388	8.37
389.598	7.33
389.807	9.6
390.017	8.61
390.227	9.98
390.436	10.16
390.646	10.43
390.855	9
391.065	6.66
391.274	4.64
391.484	3.76
391.693	2.94
391.903	2.83
392.112	2.85
392.322	2.05
392.531	2.18
392.74	2.91
392.95	4.37
393.159	5.59
393.369	5.95
393.578	7.02
393.787	6.24
393.997	5.71
394.206	6.18
394.415	5.41
394.625	4.94
394.834	4.39
395.043	4.93
395.252	4.91
395.462	6.02
395.671	5.51
395.88	6.05
396.089	6.22
396.298	5.38
396.508	5.37
396.717	5.55
396.926	4.96
397.135	4.58
397.344	4.72
397.553	4.39
397.762	4.25
397.971	4.37
398.181	3.6
398.39	3.46
398.599	3.23
398.808	3.58
399.017	3.81
399.226	4.31
399.435	4.57
399.644	4.89
399.853	5.04
400.062	5.1
400.27	4.8
400.479	4.31
400.688	4.14
400.897	4.05
401.106	4.1
401.315	4.47
401.524	4.6
401.733	4.77
401.941	4.78
402.15	4.48
402.359	4.17
402.568	4.3
402.777	4.01
402.985	3.86
403.194	4.17
403.403	4.46
403.612	4.32
403.82	4.47
404.029	4.61
404.238	4.62
404.446	4.45
404.655	4.61
404.864	4.6
405.072	4.35
405.281	4.17
405.489	4.1
405.698	4.03
405.906	3.92
406.115	3.89
406.324	3.84
406.532	3.78
406.741	3.81
406.949	3.92
407.158	3.83
407.366	3.72
407.574	3.93
407.783	3.88
407.991	3.76
408.2	3.99
408.408	4.05
408.617	3.94
408.825	3.86
409.033	3.91
409.242	3.81
409.45	3.79
409.658	3.75
409.867	3.73
410.075	3.68
410.283	3.67
410.491	3.73
410.7	3.68
410.908	3.72
411.116	3.74
411.324	3.67
411.533	3.61
411.741	3.54
411.949	3.53
412.157	3.49
412.365	3.66
412.573	3.58
412.781	3.69
412.99	3.64
413.198	3.73
413.406	3.65
413.614	3.82
413.822	3.75
414.03	3.84
414.238	3.71
414.446	3.69
414.654	3.48
414.862	3.53
415.07	3.38
415.278	3.4
415.486	3.4
415.694	3.47
415.902	3.56
416.109	3.65
416.317	3.68
416.525	3.51
416.733	3.54
416.941	3.52
417.149	3.5
417.357	3.55
417.564	3.53
417.772	3.53
417.98	3.49
418.188	3.58
418.395	3.45
418.603	3.5
418.811	3.63
419.019	3.49
419.226	3.55
419.434	3.75
419.642	3.98
419.849	3.74
420.057	3.79
420.265	3.59
420.472	3.3
420.68	3.07
420.887	3.17
421.095	3.11
421.302	3
421.51	3.11
421.717	3.01
421.925	3.11
422.132	2.93
422.34	3
422.547	2.84
422.755	3.12
422.962	2.97
423.17	3.26
423.377	3.36
423.585	3.59
423.792	3.48
423.999	3.46
424.207	3.39
424.414	3.22
424.621	3.26
424.829	3.05
425.036	3.04
425.243	2.97
425.451	3.03
425.658	2.83
425.865	3.02
426.072	3.04
426.28	3.06
426.487	3.23
426.694	3.18
426.901	3.04
427.108	3.01
427.315	3
427.523	2.79
427.73	2.7
427.937	2.69
428.144	2.75
428.351	2.64
428.558	2.89
428.765	3.01
428.972	3.05
429.179	3.03
429.386	3.16
429.593	2.87
429.8	2.98
430.007	2.87
430.214	2.78
430.421	2.81
430.628	2.87
430.835	2.81
431.042	2.76
431.249	2.75
431.456	2.75
431.662	2.93
431.869	2.99
432.076	3.09
432.283	3.13
432.49	3.08
432.697	2.99
432.903	2.97
433.11	3.27
433.317	3.25
433.524	3.23
433.73	3.28
433.937	3.21
434.144	2.98
434.35	3.09
434.557	3.18
434.764	3.08
434.97	3.06
435.177	3.11
435.384	3.04
435.59	3.07
435.797	3.09
436.003	3.24
436.21	3.1
436.416	3.04
436.623	2.98
436.829	2.93
437.036	2.81
437.242	2.83
437.449	2.89
437.655	2.88
437.862	2.95
438.068	2.88
438.275	2.96
438.481	2.89
438.687	2.92
438.894	3.02
439.1	2.96
439.307	2.88
439.513	2.92
439.719	2.97
439.926	2.82
440.132	3.09
440.338	3.13
440.544	3.09
440.751	2.91
440.957	2.93
441.163	2.8
441.369	2.79
441.575	2.83
441.782	2.98
441.988	2.93
442.194	2.88
442.4	2.95
442.606	2.87
442.812	2.82
443.018	2.79
443.224	2.76
443.431	2.72
443.637	2.87
443.843	2.79
444.049	2.9
444.255	2.98
444.461	2.95
444.667	2.81
444.873	2.84
445.079	2.95
445.284	2.86
445.49	2.87
445.696	2.9
445.902	2.9
446.108	2.7
446.314	2.75
446.52	2.78
446.726	2.85
446.931	2.91
447.137	2.95
447.343	2.89
447.549	2.77
447.755	2.65
447.96	2.65
448.166	2.7
448.372	2.85
448.578	2.97
448.783	3.12
448.989	3.08
449.195	3.03
449.4	2.94
449.606	2.94
449.812	2.79
450.017	2.8
450.223	2.74
450.428	2.68
450.634	2.68
450.84	2.72
451.045	2.77
451.251	2.84
451.456	2.91
451.662	2.91
451.867	2.88
452.073	2.75
452.278	2.74
452.483	2.64
452.689	2.65
452.894	2.77
453.1	2.88
453.305	2.93
453.51	3.14
453.716	3.01
453.921	2.97
454.127	2.92
454.332	2.79
454.537	2.75
454.742	2.73
454.948	2.56
455.153	2.62
455.358	2.72
455.563	2.65
455.769	2.78
455.974	2.77
456.179	2.62
456.384	2.47
456.589	2.55
456.795	2.41
457	2.46
457.205	2.59
457.41	2.59
457.615	2.46
457.82	2.55
458.025	2.55
458.23	2.46
458.435	2.56
458.64	2.54
458.845	2.56
459.05	2.51
459.255	2.64
459.46	2.62
459.665	2.72
459.87	2.72
460.075	2.87
460.28	2.84
460.485	2.84
460.69	2.73
460.895	2.73
461.099	2.7
461.304	2.63
461.509	2.7
461.714	2.87
461.919	2.84
462.123	2.78
462.328	2.75
462.533	2.64
462.738	2.59
462.942	2.55
463.147	2.6
463.352	2.58
463.556	2.69
463.761	2.63
463.966	2.59
464.17	2.63
464.375	2.71
464.58	2.69
464.784	2.65
464.989	2.76
465.193	2.73
465.398	2.69
465.602	2.65
465.807	2.6
466.011	2.5
466.216	2.46
466.42	2.55
466.625	2.57
466.829	2.64
467.034	2.77
467.238	2.81
467.443	2.79
467.647	2.79
467.851	2.86
468.056	2.74
468.26	2.74
468.464	2.73
468.669	2.69
468.873	2.66
469.077	2.67
469.282	2.62
