Data from Ofav_PP_310_Reflection_4.txt Node
Date: Tue Jul 27 19:02:11 EDT 2021
User: USUARIO
Spectrometer: FLMT01687
Trigger mode: 0
Integration Time (sec): 8.500000E-1
Scans to average: 2
Electric dark correction enabled: true
Nonlinearity correction enabled: false
Boxcar width: 2
XAxis mode: Wavelengths
Number of Pixels in Spectrum: 3648
>>>>>Begin Spectral Data<<<<<
179.494	-379.26
179.716	-190.05
179.937	-119.9
180.158	-137.16
180.38	-175.97
180.601	-204.03
180.823	70.53
181.044	54.55
181.265	1.55
181.486	-89.99
181.708	-51.9
181.929	108.7
182.15	101.96
182.372	-0.69
182.593	-10.52
182.814	13.68
183.035	37.37
183.257	15.76
183.478	15.63
183.699	13.76
183.92	26.3
184.141	16.39
184.363	44.4
184.584	65.32
184.805	80.01
185.026	49.08
185.247	48.18
185.468	20.69
185.689	9.68
185.91	-10.32
186.132	9.75
186.353	11.85
186.574	0.13
186.795	-0.77
187.016	3.62
187.237	-7.45
187.458	0.67
187.679	17.87
187.9	7.6
188.121	6.31
188.342	-2.41
188.563	-7.82
188.784	18.72
189.005	40.36
189.226	50.1
189.447	45.11
189.667	45.7
189.888	42.65
190.109	22.69
190.33	-9.67
190.551	-17.66
190.772	-5.3
190.993	-4.34
191.214	17.48
191.434	32.57
191.655	53.36
191.876	52.55
192.097	60.13
192.318	57.46
192.538	59.19
192.759	57.7
192.98	55.01
193.201	53.87
193.421	33.62
193.642	10.54
193.863	-0.22
194.083	8.93
194.304	-12.6
194.525	-19.19
194.745	-49.65
194.966	-94.46
195.187	-161.86
195.407	-127.58
195.628	-131.22
195.848	-50.4
196.069	-20.6
196.29	30.64
196.51	30.82
196.731	48.86
196.951	33.41
197.172	4.16
197.392	15.39
197.613	17.67
197.833	32.14
198.054	36.78
198.274	25.98
198.495	12.02
198.715	15.65
198.936	23.49
199.156	58.53
199.377	114.17
199.597	149.87
199.817	62.29
200.038	-20.37
200.258	-45.37
200.479	-21.23
200.699	19.16
200.919	19.68
201.14	40.1
201.36	41.2
201.58	52.17
201.801	42.89
202.021	55.57
202.241	53.42
202.461	33.67
202.682	-11.94
202.902	-46.15
203.122	-46.57
203.342	-72.83
203.563	-19.04
203.783	4.07
204.003	25.72
204.223	23.84
204.443	49.1
204.663	36.52
204.884	16.5
205.104	16.95
205.324	31.64
205.544	22.93
205.764	14.05
205.984	9.03
206.204	-23.48
206.424	-21.37
206.644	3.36
206.864	30.64
207.084	45.4
207.304	37.69
207.525	29.8
207.745	48.72
207.964	44.71
208.184	48.23
208.404	55.59
208.624	48
208.844	21.34
209.064	25.17
209.284	-4.55
209.504	0.72
209.724	-18.36
209.944	-31.46
210.164	-48.48
210.384	9.03
210.604	1.09
210.823	37.77
211.043	31.32
211.263	20.49
211.483	25.33
211.703	7.85
211.922	-25.54
212.142	-15.2
212.362	-0.85
212.582	-55.72
212.801	7.44
213.021	7.96
213.241	-9.53
213.461	-52.43
213.68	-15.11
213.9	-62.88
214.12	-25.81
214.339	-12.65
214.559	5.78
214.779	14.18
214.998	11.04
215.218	-0.06
215.438	11.47
215.657	18.38
215.877	6.6
216.096	15.47
216.316	14.55
216.535	7.77
216.755	29.26
216.974	41.49
217.194	43.23
217.413	40.71
217.633	36.65
217.852	12.43
218.072	2.8
218.291	-11.66
218.511	-14.29
218.73	-3.32
218.95	0.83
219.169	10.78
219.389	15.5
219.608	31.56
219.827	25.81
220.047	34.56
220.266	53.36
220.485	48.81
220.705	36.53
220.924	39.21
221.143	19.49
221.363	-6.68
221.582	4.84
221.801	18.27
222.021	30.59
222.24	36.57
222.459	28.05
222.678	27.36
222.897	9.38
223.117	7.21
223.336	0.17
223.555	9.02
223.774	-0.05
223.993	5.58
224.213	-22.53
224.432	9.74
224.651	28.45
224.87	30.94
225.089	17.69
225.308	26.11
225.527	21.41
225.746	-15.64
225.965	-7.86
226.184	-9.47
226.404	-22.26
226.623	-31.24
226.842	-9.88
227.061	-19.98
227.28	-4.99
227.499	7.5
227.718	-2.69
227.936	-3.19
228.155	14.84
228.374	31.73
228.593	41.85
228.812	53.05
229.031	47.81
229.25	31.63
229.469	5.58
229.688	-31.68
229.907	-70.11
230.125	-23.75
230.344	-22.74
230.563	-2.86
230.782	9.19
231.001	21.84
231.22	12.32
231.438	15.21
231.657	16.85
231.876	0.84
232.095	16.55
232.313	23.64
232.532	38.72
232.751	27.23
232.969	41.38
233.188	33.58
233.407	39.19
233.625	20.17
233.844	12.82
234.063	4.02
234.281	12.16
234.5	-5.41
234.719	7.5
234.937	-15.76
235.156	-13.14
235.374	-30.84
235.593	-23.28
235.811	-16.16
236.03	20.98
236.249	10.12
236.467	18.04
236.686	23.84
236.904	21.95
237.123	16.6
237.341	20.48
237.559	23.23
237.778	13.97
237.996	20.64
238.215	27.31
238.433	35.99
238.652	26.03
238.87	30.1
239.088	10.08
239.307	-0.94
239.525	-19.85
239.743	-2.36
239.962	-10.8
240.18	7.94
240.398	13.18
240.617	15.23
240.835	18.44
241.053	20.78
241.271	4.69
241.49	17.2
241.708	20.99
241.926	-6.81
242.144	-15.15
242.363	-27.27
242.581	-23.05
242.799	-21.46
243.017	-33.08
243.235	-25.31
243.453	0.18
243.672	-9.47
243.89	-10.82
244.108	8.66
244.326	10.12
244.544	-10.31
244.762	-3.76
244.98	19.36
245.198	4.38
245.416	10.63
245.634	39.65
245.852	37.69
246.07	35.39
246.288	40.51
246.506	32.66
246.724	17.58
246.942	19.06
247.16	0.25
247.378	9.33
247.596	23.87
247.814	31.12
248.032	24.35
248.25	46.18
248.468	42.15
248.685	15.49
248.903	26.06
249.121	23.66
249.339	26.85
249.557	34.71
249.775	31.34
249.992	9.86
250.21	6.05
250.428	-4.5
250.646	-24.42
250.863	-12.77
251.081	15.25
251.299	39.94
251.517	28.54
251.734	52.73
251.952	44.33
252.17	29.16
252.387	-9.41
252.605	18.01
252.823	20.11
253.04	32.01
253.258	39.94
253.475	47.89
253.693	47.3
253.911	54.3
254.128	50.15
254.346	40.24
254.563	32.57
254.781	21.21
254.998	12.39
255.216	-10.44
255.433	-17.17
255.651	6.14
255.868	-3.44
256.086	-18.96
256.303	-8.85
256.521	8.24
256.738	1.86
256.956	3.59
257.173	20.19
257.39	16.58
257.608	22.85
257.825	24.07
258.043	29.36
258.26	36.65
258.477	38.86
258.695	29.72
258.912	22.94
259.129	16.09
259.346	-19.81
259.564	-4.02
259.781	20.3
259.998	29.51
260.216	20.47
260.433	42.75
260.65	35.15
260.867	10.73
261.084	5.86
261.302	2.87
261.519	4.96
261.736	-5.57
261.953	1.18
262.17	5.6
262.387	13.71
262.604	14.19
262.822	10.31
263.039	22.6
263.256	24.2
263.473	32.18
263.69	21.8
263.907	28.64
264.124	15.61
264.341	12.13
264.558	12.66
264.775	4.01
264.992	20.7
265.209	26.7
265.426	32.98
265.643	23.95
265.86	27.4
266.077	14.09
266.294	19.74
266.51	20.96
266.727	18.6
266.944	13.81
267.161	4.32
267.378	-10.76
267.595	-18.8
267.812	-6.96
268.028	11.64
268.245	25.13
268.462	15.02
268.679	27.53
268.896	25.26
269.112	-5.34
269.329	-8.94
269.546	15.83
269.763	3.13
269.979	0.95
270.196	17.82
270.413	14.23
270.629	12.13
270.846	14.69
271.063	20
271.279	9.7
271.496	23.55
271.712	1.9
271.929	-2.87
272.146	-25.61
272.362	13.31
272.579	30.64
272.795	36.42
273.012	40.48
273.228	34.44
273.445	32.88
273.661	14.42
273.878	3.81
274.094	1.54
274.311	16.14
274.527	12.54
274.744	13.54
274.96	20.85
275.177	22.02
275.393	15.96
275.609	20.85
275.826	19.28
276.042	16.84
276.259	24.06
276.475	25.95
276.691	13.04
276.908	13.82
277.124	18.08
277.34	25.31
277.557	14.46
277.773	33.05
277.989	44.48
278.205	41.6
278.422	34.17
278.638	39.15
278.854	27.3
279.07	18.8
279.286	19.42
279.503	22.69
279.719	33.4
279.935	42.65
280.151	33.54
280.367	25.14
280.583	29.35
280.799	25.6
281.016	14.1
281.232	11.48
281.448	23.34
281.664	3.14
281.88	-10.26
282.096	-0.61
282.312	5.61
282.528	7.09
282.744	7.83
282.96	21.04
283.176	8.12
283.392	-0.51
283.608	-1.48
283.824	24.12
284.04	-2.41
284.256	14.67
284.471	21.45
284.687	21.4
284.903	27.73
285.119	49.62
285.335	37.02
285.551	31.51
285.767	34.02
285.982	15.21
286.198	-5.57
286.414	-1.56
286.63	0.12
286.846	-19.6
287.061	-13.31
287.277	-11.9
287.493	-25.48
287.709	-10.3
287.924	-1.58
288.14	6.05
288.356	35.48
288.571	52.79
288.787	36.94
289.003	32.35
289.218	29.26
289.434	-1.96
289.65	-8.14
289.865	-8.7
290.081	8.97
290.296	3.31
290.512	9.48
290.727	10.63
290.943	-9.28
291.159	-15.53
291.374	-13.13
291.59	5.89
291.805	12.92
292.021	33.37
292.236	16.71
292.451	3.11
292.667	-4.89
292.882	-8.76
293.098	-21
293.313	1.18
293.529	14.41
293.744	15.1
293.959	17.85
294.175	31.61
294.39	12.95
294.605	14.86
294.821	14.9
295.036	7.8
295.251	-10.92
295.467	-5.98
295.682	-19
295.897	3.67
296.112	31.87
296.328	26.41
296.543	41.38
296.758	39.37
296.973	23.29
297.188	22.31
297.404	17.72
297.619	19.94
297.834	15.62
298.049	19.05
298.264	10.35
298.479	15.47
298.694	9.3
298.909	1.46
299.125	8.94
299.34	-1.9
299.555	6.66
299.77	5.11
299.985	17.62
300.2	13.45
300.415	21.07
300.63	19.15
300.845	26.88
301.06	21.21
301.275	26.49
301.49	26.13
301.704	27.19
301.919	27.63
302.134	26.46
302.349	28.04
302.564	25.59
302.779	10.82
302.994	5.21
303.209	27.74
303.423	15.58
303.638	-0.75
303.853	17.61
304.068	10.44
304.283	-5.21
304.497	-8.21
304.712	4.16
304.927	-10.05
305.142	-6.31
305.356	-15.87
305.571	5.2
305.786	23.67
306	8.07
306.215	11.94
306.43	11.17
306.644	7.33
306.859	2.22
307.074	32.69
307.288	28.89
307.503	32.47
307.717	21.98
307.932	12.87
308.147	11.57
308.361	-4.36
308.576	1.29
308.79	-2.53
309.005	-9.66
309.219	-27.82
309.434	-17.87
309.648	-23.08
309.863	-20.55
310.077	-10.71
310.292	2.38
310.506	-4.53
310.72	-14.14
310.935	-14.69
311.149	-20.2
311.364	-49.92
311.578	-18.03
311.792	-14.92
312.007	-2.95
312.221	16.86
312.435	29.1
312.649	29.6
312.864	0.79
313.078	-6.62
313.292	-40.7
313.507	-30.43
313.721	-9.36
313.935	15.35
314.149	17.51
314.363	19.65
314.578	18.55
314.792	2.64
315.006	15.19
315.22	20.96
315.434	19.85
315.648	12.32
315.862	29.06
316.077	32.57
316.291	29
316.505	11.83
316.719	19.08
316.933	15.29
317.147	17.45
317.361	15.6
317.575	35.73
317.789	24.17
318.003	17.47
318.217	6.7
318.431	-0.91
318.645	-1.8
318.859	0.71
319.073	-4.41
319.287	-5
319.5	-20.73
319.714	-16.97
319.928	-12.37
320.142	-17.31
320.356	0.11
320.57	16.52
320.784	18.41
320.997	28.27
321.211	45.43
321.425	39.58
321.639	39.11
321.853	43.78
322.066	38.76
322.28	21.18
322.494	30
322.707	36.13
322.921	30.83
323.135	22.22
323.349	28.62
323.562	18.98
323.776	16.28
323.989	8.66
324.203	22.16
324.417	16.09
324.63	27.62
324.844	11.34
325.057	12.26
325.271	4.7
325.485	-0.57
325.698	-1.53
325.912	-0.41
326.125	2.73
326.339	6.2
326.552	4.55
326.766	-5.55
326.979	11.86
327.193	8.53
327.406	-3.99
327.619	-0.67
327.833	0.84
328.046	3.32
328.26	-7.24
328.473	-8.66
328.686	3.93
328.9	9.17
329.113	3.88
329.326	26.9
329.54	34.34
329.753	-3.01
329.966	7.86
330.179	-2.18
330.393	0.54
330.606	-3.21
330.819	27.52
331.032	24.48
331.246	26.71
331.459	28.22
331.672	27.81
331.885	14.07
332.098	19.46
332.311	11.52
332.525	4.69
332.738	10.15
332.951	14.44
333.164	4.52
333.377	12.56
333.59	21.67
333.803	26.7
334.016	17.49
334.229	15.25
334.442	19.45
334.655	25.11
334.868	20.56
335.081	29.21
335.294	34.91
335.507	20.07
335.72	13.33
335.933	2.74
336.146	1.65
336.359	-4.83
336.572	13.75
336.785	3.1
336.997	25.35
337.21	24.68
337.423	43.24
337.636	29.42
337.849	26.97
338.062	20.77
338.274	29.05
338.487	26.96
338.7	28.62
338.913	27.07
339.125	17.53
339.338	5.34
339.551	-15.9
339.763	-32.85
339.976	-22.63
340.189	-18.18
340.402	-20.13
340.614	-24.08
340.827	-22.35
341.039	-15.9
341.252	-25
341.465	-43.76
341.677	-27.49
341.89	-4.71
342.102	-4.07
342.315	14.58
342.527	22.91
342.74	21.71
342.952	12.33
343.165	25.14
343.377	16.48
343.59	4.78
343.802	2.52
344.015	5.58
344.227	-7.09
344.44	-24.35
344.652	-0.81
344.864	5.52
345.077	4.85
345.289	-8.72
345.502	3.12
345.714	-3.19
345.926	-8.68
346.139	-1.87
346.351	10.72
346.563	-1.53
346.775	-0.04
346.988	-2.54
347.2	-7.28
347.412	-21.53
347.624	3.14
347.837	-2.99
348.049	-4.99
348.261	-6.1
348.473	2.01
348.685	-5.95
348.897	-5.39
349.11	4.74
349.322	-2.17
349.534	-1.31
349.746	2.52
349.958	3.85
350.17	-3.72
350.382	-2.89
350.594	-20.93
350.806	-11.53
351.018	-13.01
351.23	-15.72
351.442	-23.43
351.654	-1.8
351.866	1.64
352.078	18.64
352.29	16.32
352.502	31.89
352.714	24.85
352.926	16.28
353.138	12.23
353.35	27.05
353.561	19.91
353.773	27.81
353.985	10.59
354.197	17.93
354.409	17.79
354.621	11.56
354.832	15.68
355.044	7.87
355.256	9.47
355.468	6.67
355.679	9.88
355.891	3.28
356.103	24.05
356.314	14.59
356.526	13.68
356.738	14.03
356.949	18.78
357.161	19.23
357.373	16.88
357.584	17.68
357.796	18.39
358.008	20.48
358.219	29.59
358.431	32.45
358.642	35.51
358.854	39.71
359.065	27.69
359.277	25.19
359.488	26.99
359.7	21
359.911	11.95
360.123	22.37
360.334	8.16
360.546	-7.92
360.757	-18.43
360.969	-15.18
361.18	-25.59
361.391	-6.71
361.603	-1.52
361.814	0.96
362.025	-1.33
362.237	-7.56
362.448	-13.08
362.659	-11.77
362.871	5.42
363.082	3.92
363.293	23.36
363.504	19.44
363.716	14.27
363.927	-19.68
364.138	-11.66
364.349	-10.25
364.56	-9.11
364.772	4.67
364.983	26.07
365.194	28.26
365.405	33.5
365.616	20.53
365.827	18.52
366.038	18.27
366.25	2.86
366.461	-27.82
366.672	-19.12
366.883	-11.51
367.094	-24.39
367.305	-15.09
367.516	-13.51
367.727	-8.66
367.938	-15.06
368.149	-2.82
368.36	5.46
368.571	5.21
368.781	12.11
368.992	8.25
369.203	-2.53
369.414	5.37
369.625	20.38
369.836	19.13
370.047	19.11
370.258	24.04
370.468	20
370.679	6.18
370.89	-3.82
371.101	-11.41
371.312	-6.92
371.522	-19.05
371.733	-15.34
371.944	-4.25
372.155	13.62
372.365	4.67
372.576	13.84
372.787	20.88
372.997	17.65
373.208	9.95
373.419	14.92
373.629	21.14
373.84	20.25
374.05	17.96
374.261	12.11
374.472	9.96
374.682	3.96
374.893	7.81
375.103	6.1
375.314	10.05
375.524	10.25
375.735	-2.58
375.945	-2.19
376.156	1.97
376.366	3.17
376.577	2.95
376.787	11.03
376.997	6.06
377.208	7.21
377.418	5.72
377.629	8.32
377.839	8.68
378.049	10.38
378.26	9.7
378.47	15.53
378.68	19.05
378.89	19.69
379.101	20.79
379.311	20.98
379.521	10.88
379.732	8.82
379.942	12.2
380.152	-1.22
380.362	12.07
380.572	5.31
380.783	1.02
380.993	-5.65
381.203	-2.56
381.413	-19.61
381.623	-6.97
381.833	3.51
382.043	14.17
382.253	13.2
382.463	16.72
382.674	19.83
382.884	4.08
383.094	-6
383.304	2.02
383.514	6.12
383.724	-2.98
383.934	3.08
384.144	-0.81
384.353	-1.01
384.563	-2.12
384.773	3.68
384.983	1.49
385.193	6.67
385.403	4.52
385.613	4.97
385.823	6.56
386.033	9.45
386.242	11.68
386.452	13.13
386.662	12.86
386.872	13.53
387.082	11.21
387.291	7.11
387.501	7.92
387.711	7.56
387.921	5.61
388.13	5.75
388.34	6.82
388.55	4.42
388.759	2.71
388.969	4.06
389.179	7.13
389.388	7.73
389.598	9.39
389.807	8.86
390.017	7.1
390.227	8.13
390.436	7.43
390.646	7.48
390.855	7.97
391.065	7.99
391.274	6.48
391.484	5.76
391.693	7.38
391.903	7.27
392.112	6.67
392.322	6.11
392.531	5.74
392.74	5.6
392.95	5.92
393.159	8.03
393.369	8.45
393.578	9.79
393.787	7.69
393.997	7.38
394.206	7.46
394.415	7.28
394.625	7.16
394.834	7.55
395.043	7.67
395.252	7.03
395.462	7.19
395.671	6.96
395.88	7.72
396.089	8.39
396.298	8.19
396.508	7.93
396.717	8.12
396.926	7.89
397.135	7.36
397.344	7.32
397.553	7.18
397.762	7.42
397.971	7.37
398.181	7.53
398.39	7.63
398.599	8.06
398.808	7.69
399.017	8.37
399.226	8.57
399.435	8.87
399.644	9.16
399.853	9.39
400.062	9.21
400.27	9.05
400.479	8.75
400.688	8.46
400.897	8.63
401.106	8.69
401.315	9.01
401.524	9.06
401.733	9.11
401.941	8.91
402.15	8.83
402.359	8.39
402.568	8.53
402.777	8.41
402.985	8.35
403.194	8.48
403.403	8.57
403.612	8.35
403.82	8.41
404.029	8.49
404.238	8.35
404.446	8.47
404.655	8.5
404.864	8.49
405.072	8.41
405.281	8.31
405.489	8.25
405.698	8.24
405.906	8.31
406.115	8.11
406.324	8.01
406.532	7.9
406.741	7.93
406.949	7.87
407.158	7.73
407.366	7.75
407.574	7.84
407.783	7.88
407.991	7.81
408.2	8.05
408.408	8.14
408.617	8.19
408.825	8.11
409.033	8.05
409.242	8.11
409.45	8.1
409.658	7.97
409.867	7.96
410.075	7.92
410.283	7.71
410.491	7.56
410.7	7.53
410.908	7.4
411.116	7.46
411.324	7.51
411.533	7.53
411.741	7.37
411.949	7.49
412.157	7.49
412.365	7.68
412.573	7.64
412.781	7.73
412.99	7.65
413.198	7.69
413.406	7.54
413.614	7.67
413.822	7.72
414.03	7.71
414.238	7.63
414.446	7.74
414.654	7.74
414.862	7.74
415.07	7.7
415.278	7.55
415.486	7.33
415.694	7.21
415.902	7.23
416.109	7.27
416.317	7.48
416.525	7.57
416.733	7.46
416.941	7.42
417.149	7.31
417.357	7.33
417.564	7.11
417.772	7.13
417.98	7.12
418.188	7.32
418.395	7.12
418.603	7.2
418.811	7.28
419.019	7.08
419.226	7.01
419.434	7.19
419.642	7.35
419.849	7.33
420.057	7.56
420.265	7.54
420.472	7.26
420.68	7.03
420.887	7.08
421.095	6.91
421.302	6.71
421.51	6.86
421.717	6.86
421.925	6.8
422.132	6.89
422.34	6.91
422.547	6.76
422.755	6.99
422.962	6.95
423.17	6.99
423.377	7.23
423.585	7.41
423.792	7.45
423.999	7.45
424.207	7.21
424.414	6.98
424.621	6.97
424.829	6.54
425.036	6.48
425.243	6.52
425.451	6.63
425.658	6.6
425.865	6.97
426.072	6.99
426.28	6.99
426.487	7
426.694	6.95
426.901	6.88
427.108	6.94
427.315	6.95
427.523	6.79
427.73	6.56
427.937	6.39
428.144	6.31
428.351	6.26
428.558	6.45
428.765	6.74
428.972	6.93
429.179	6.89
429.386	6.99
429.593	6.84
429.8	6.68
430.007	6.51
430.214	6.38
430.421	6.56
430.628	6.56
430.835	6.68
431.042	6.72
431.249	6.84
431.456	6.66
431.662	6.77
431.869	6.79
432.076	6.86
432.283	6.91
432.49	6.97
432.697	6.98
432.903	6.94
433.11	6.96
433.317	6.98
433.524	6.93
433.73	6.87
433.937	6.75
434.144	6.71
434.35	6.73
434.557	6.58
434.764	6.52
434.97	6.63
435.177	6.72
435.384	6.59
435.59	6.64
435.797	6.57
436.003	6.55
436.21	6.38
436.416	6.33
436.623	6.29
436.829	6.21
437.036	6.22
437.242	6.33
437.449	6.37
437.655	6.37
437.862	6.58
438.068	6.55
438.275	6.51
438.481	6.55
438.687	6.64
438.894	6.58
439.1	6.54
439.307	6.49
439.513	6.5
439.719	6.61
439.926	6.43
440.132	6.6
440.338	6.63
440.544	6.63
440.751	6.41
440.957	6.72
441.163	6.58
441.369	6.58
441.575	6.56
441.782	6.67
441.988	6.53
442.194	6.46
442.4	6.58
442.606	6.6
442.812	6.66
443.018	6.68
443.224	6.79
443.431	6.66
443.637	6.78
443.843	6.64
444.049	6.66
444.255	6.59
444.461	6.49
444.667	6.27
444.873	6.22
445.079	6.08
445.284	6.02
445.49	6.12
445.696	6.17
445.902	6.27
446.108	6.35
446.314	6.41
446.52	6.43
446.726	6.55
446.931	6.62
447.137	6.63
447.343	6.62
447.549	6.56
447.755	6.46
447.96	6.34
448.166	6.37
448.372	6.49
448.578	6.55
448.783	6.63
448.989	6.75
449.195	6.67
449.4	6.6
449.606	6.46
449.812	6.39
450.017	6.38
450.223	6.44
450.428	6.37
450.634	6.41
450.84	6.39
451.045	6.44
451.251	6.44
451.456	6.5
451.662	6.48
451.867	6.57
452.073	6.4
452.278	6.35
452.483	6.35
452.689	6.44
452.894	6.39
453.1	6.44
453.305	6.52
453.51	6.55
453.716	6.49
453.921	6.55
454.127	6.54
454.332	6.52
454.537	6.5
454.742	6.44
454.948	6.26
455.153	6.35
455.358	6.34
455.563	6.42
455.769	6.47
455.974	6.61
456.179	6.5
456.384	6.4
456.589	6.32
456.795	6.25
457	6.23
457.205	6.28
457.41	6.34
457.615	6.29
457.82	6.27
458.025	6.17
458.23	6.24
458.435	6.23
458.64	6.19
458.845	6.29
459.05	6.32
459.255	6.25
459.46	6.29
459.665	6.41
459.87	6.46
460.075	6.62
460.28	6.59
460.485	6.51
460.69	6.39
460.895	6.34
461.099	6.25
461.304	6.24
461.509	6.35
461.714	6.44
461.919	6.39
462.123	6.39
462.328	6.31
462.533	6.27
462.738	6.38
462.942	6.35
463.147	6.47
463.352	6.5
463.556	6.57
463.761	6.39
463.966	6.47
464.17	6.39
464.375	6.46
464.58	6.42
464.784	6.45
464.989	6.44
465.193	6.39
465.398	6.42
465.602	6.4
465.807	6.33
466.011	6.32
466.216	6.34
466.42	6.3
466.625	6.23
466.829	6.29
467.034	6.38
467.238	6.49
467.443	6.57
467.647	6.64
467.851	6.71
468.056	6.72
468.26	6.65
468.464	6.62
