Data from Ofav_PP_Phys_360_Reflection_1.txt Node
Date: Tue Jul 27 19:08:42 EDT 2021
User: USUARIO
Spectrometer: FLMT01687
Trigger mode: 0
Integration Time (sec): 8.500000E-1
Scans to average: 2
Electric dark correction enabled: true
Nonlinearity correction enabled: false
Boxcar width: 2
XAxis mode: Wavelengths
Number of Pixels in Spectrum: 3648
>>>>>Begin Spectral Data<<<<<
179.494	-1374.07
179.716	-472.04
179.937	-365.5
180.158	-343.28
180.38	-482.29
180.601	-566.43
180.823	177.13
181.044	126.07
181.265	54.34
181.486	-23.18
181.708	-88.68
181.929	144.19
182.15	135.56
182.372	182.56
182.593	97.3
182.814	68.99
183.035	83.71
183.257	81.55
183.478	71.26
183.699	77.64
183.92	95.67
184.141	65.23
184.363	76.6
184.584	71.3
184.805	58.3
185.026	44.54
185.247	50.23
185.468	26.94
185.689	8.47
185.91	-4.61
186.132	-31.81
186.353	-25.86
186.574	-25.02
186.795	-19.92
187.016	5.34
187.237	17.45
187.458	24.82
187.679	46.59
187.9	28.07
188.121	27.32
188.342	46.37
188.563	67.09
188.784	73.24
189.005	74.98
189.226	62.49
189.447	54.46
189.667	57.57
189.888	51.52
190.109	65.81
190.33	81.81
190.551	59.32
190.772	60.67
190.993	48.48
191.214	34.77
191.434	43.12
191.655	57.71
191.876	42.29
192.097	43.49
192.318	53.43
192.538	51.7
192.759	53.46
192.98	63.81
193.201	70.19
193.421	95.31
193.642	62.88
193.863	48.11
194.083	45.91
194.304	17.75
194.525	-11.05
194.745	-43.04
194.966	-84.65
195.187	-105.19
195.407	-34.5
195.628	-9
195.848	48.33
196.069	68.31
196.29	113.83
196.51	76.82
196.731	69.71
196.951	36.79
197.172	29.29
197.392	36.12
197.613	51.01
197.833	32.47
198.054	44.22
198.274	23.6
198.495	24.22
198.715	-14.72
198.936	-1.9
199.156	-4.89
199.377	34.59
199.597	3.73
199.817	31.06
200.038	-18.5
200.258	38.68
200.479	10.09
200.699	3.07
200.919	-8.71
201.14	10.01
201.36	-9.87
201.58	12.11
201.801	13.26
202.021	16.05
202.241	17.94
202.461	20.82
202.682	6.49
202.902	30.07
203.122	63.03
203.342	55.01
203.563	65.93
203.783	71.2
204.003	38.51
204.223	18.24
204.443	-4.29
204.663	-72.48
204.884	-54.01
205.104	-9.75
205.324	6.94
205.544	31.16
205.764	35.01
205.984	32.67
206.204	17.98
206.424	-10.41
206.644	7.9
206.864	20.09
207.084	21.05
207.304	41.95
207.525	50.49
207.745	64.87
207.964	76.18
208.184	78.08
208.404	51.29
208.624	55.93
208.844	56.04
209.064	47.72
209.284	32.02
209.504	39.56
209.724	29.37
209.944	-52.45
210.164	-127.5
210.384	-118.3
210.604	-119.49
210.823	-21.61
211.043	12.81
211.263	21.39
211.483	20.22
211.703	23.35
211.922	-0.25
212.142	20.15
212.362	38.58
212.582	36.69
212.801	41.41
213.021	37.4
213.241	7.89
213.461	-36.22
213.68	-13.63
213.9	-28.48
214.12	8.86
214.339	21.58
214.559	41.13
214.779	36.98
214.998	24.61
215.218	0.02
215.438	12.1
215.657	9.32
215.877	4.56
216.096	9.68
216.316	31.55
216.535	6.39
216.755	10.45
216.974	35.02
217.194	49.56
217.413	43.89
217.633	63.95
217.852	49.64
218.072	22.23
218.291	1.18
218.511	-6.08
218.73	1.1
218.95	-2.11
219.169	15.38
219.389	5.14
219.608	16.8
219.827	0.59
220.047	6.82
220.266	38.5
220.485	54.52
220.705	42.69
220.924	51.87
221.143	43.27
221.363	17.71
221.582	12.89
221.801	25.25
222.021	41.35
222.24	41.84
222.459	49.65
222.678	67.43
222.897	55.3
223.117	48.51
223.336	51.02
223.555	33.21
223.774	4.94
223.993	-4.82
224.213	-34.57
224.432	-24.51
224.651	13.93
224.87	19.74
225.089	31.54
225.308	32.87
225.527	44.51
225.746	25.27
225.965	55.44
226.184	33.12
226.404	38.36
226.623	24.47
226.842	23.45
227.061	-12.55
227.28	7.41
227.499	16.8
227.718	8.43
227.936	0.64
228.155	24.49
228.374	32.07
228.593	31.91
228.812	25.67
229.031	25.91
229.25	15.23
229.469	-6.63
229.688	-25.53
229.907	-34.21
230.125	1.45
230.344	19.23
230.563	32.18
230.782	41.46
231.001	51.62
231.22	48.92
231.438	33.98
231.657	9.58
231.876	-9.75
232.095	-0.63
232.313	5.72
232.532	9.05
232.751	38.75
232.969	54.97
233.188	68.89
233.407	54.34
233.625	63.91
233.844	50.26
234.063	57.38
234.281	46.83
234.5	37.64
234.719	49.67
234.937	32.94
235.156	28.48
235.374	19.82
235.593	29.04
235.811	14.37
236.03	31.76
236.249	25.21
236.467	47.54
236.686	33.33
236.904	54.24
237.123	39.79
237.341	39.26
237.559	35.37
237.778	43.59
237.996	21.98
238.215	20.01
238.433	24.94
238.652	13.78
238.87	17.09
239.088	16.43
239.307	26.99
239.525	15.43
239.743	16.67
239.962	6.6
240.18	19.28
240.398	30.73
240.617	38.49
240.835	45.55
241.053	51.15
241.271	38.74
241.49	28.67
241.708	39.34
241.926	26.3
242.144	16.59
242.363	15.21
242.581	27.82
242.799	-2.04
243.017	-8.05
243.235	-3.88
243.453	-7.23
243.672	18.38
243.89	36.05
244.108	59.57
244.326	68.06
244.544	56.4
244.762	36.19
244.98	53.88
245.198	41.39
245.416	23.13
245.634	46.08
245.852	68.61
246.07	50.74
246.288	38.37
246.506	45.97
246.724	35.65
246.942	26.96
247.16	23.93
247.378	34.15
247.596	33.24
247.814	36.56
248.032	24.24
248.25	27.58
248.468	19.47
248.685	17.49
248.903	9.32
249.121	27.97
249.339	10.57
249.557	27.87
249.775	3.25
249.992	2
250.21	-2.96
250.428	5.65
250.646	-19.83
250.863	7.79
251.081	21.17
251.299	29.15
251.517	29.33
251.734	55.09
251.952	30.43
252.17	51.9
252.387	31.7
252.605	46.66
252.823	45.09
253.04	65.87
253.258	53.33
253.475	58.55
253.693	54.96
253.911	63.69
254.128	64.06
254.346	64.91
254.563	63.89
254.781	49.91
254.998	30.11
255.216	-4.34
255.433	-8.53
255.651	-6.37
255.868	-15.2
256.086	-12.52
256.303	-5.52
256.521	14.82
256.738	14.18
256.956	25.35
257.173	36.67
257.39	45.44
257.608	48.28
257.825	63.09
258.043	55.37
258.26	56.31
258.477	48.69
258.695	40.84
258.912	20.03
259.129	25.14
259.346	18.94
259.564	38.42
259.781	63.66
259.998	57.54
260.216	67.31
260.433	61.64
260.65	49.86
260.867	21.42
261.084	28.92
261.302	-0.4
261.519	10.58
261.736	-1.16
261.953	10.28
262.17	11.43
262.387	16.29
262.604	31.08
262.822	41.29
263.039	45.02
263.256	46.72
263.473	59.67
263.69	49.28
263.907	37.39
264.124	34.54
264.341	33.27
264.558	28.02
264.775	29.63
264.992	49.26
265.209	49.99
265.426	58.54
265.643	68.23
265.86	42.68
266.077	35.37
266.294	33.94
266.51	30.18
266.727	31.49
266.944	43.13
267.161	3.21
267.378	-18.59
267.595	-4.15
267.812	-6.37
268.028	-16.29
268.245	49.56
268.462	76.78
268.679	43.09
268.896	32.57
269.112	17.74
269.329	2.44
269.546	10.45
269.763	-2.47
269.979	-0.99
270.196	15.24
270.413	30.69
270.629	31.96
270.846	61.96
271.063	56.28
271.279	62.63
271.496	53.79
271.712	24.62
271.929	4.83
272.146	-11.38
272.362	-3.75
272.579	-5.86
272.795	17.09
273.012	23.79
273.228	27.76
273.445	33.86
273.661	40.3
273.878	29.82
274.094	20.51
274.311	33.66
274.527	36.08
274.744	41.24
274.96	48.8
275.177	42.95
275.393	35.34
275.609	27.04
275.826	18.41
276.042	28.18
276.259	45.2
276.475	35.12
276.691	36.05
276.908	38.14
277.124	24.71
277.34	28.61
277.557	23.82
277.773	36.33
277.989	37.61
278.205	44.89
278.422	48.29
278.638	48.83
278.854	38.68
279.07	35.23
279.286	33.01
279.503	18.63
279.719	35.78
279.935	44.96
280.151	49.29
280.367	49.48
280.583	60.54
280.799	59.55
281.016	58.08
281.232	53.19
281.448	56.22
281.664	47.89
281.88	44.98
282.096	34.43
282.312	45.56
282.528	43.97
282.744	44.61
282.96	40.83
283.176	70.06
283.392	71.34
283.608	76.2
283.824	66.38
284.04	39.56
284.256	23.11
284.471	14.68
284.687	6.23
284.903	10.7
285.119	28.33
285.335	30.23
285.551	25.66
285.767	35.42
285.982	20.55
286.198	28.68
286.414	14.4
286.63	33.04
286.846	20.51
287.061	29.83
287.277	17.28
287.493	14.47
287.709	4.74
287.924	16.24
288.14	24.61
288.356	55.6
288.571	68.3
288.787	68.97
289.003	56.47
289.218	47.23
289.434	28.14
289.65	33.21
289.865	13.61
290.081	21.81
290.296	5.47
290.512	16.1
290.727	20.78
290.943	40.78
291.159	87
291.374	100.5
291.59	63.11
291.805	59.29
292.021	31.91
292.236	22.16
292.451	19.35
292.667	25.07
292.882	23.08
293.098	18.43
293.313	23.06
293.529	40.67
293.744	33.33
293.959	30.27
294.175	50.47
294.39	33.59
294.605	31.46
294.821	32.24
295.036	27.5
295.251	10.01
295.467	12.05
295.682	-14.29
295.897	8.33
296.112	21.75
296.328	32.05
296.543	41.11
296.758	44.02
296.973	32.52
297.188	42.4
297.404	40.94
297.619	38.48
297.834	43.73
298.049	46.14
298.264	37.78
298.479	39.53
298.694	48.69
298.909	38.92
299.125	41.14
299.34	24.47
299.555	28.9
299.77	20.61
299.985	24.74
300.2	18.4
300.415	34.99
300.63	26.07
300.845	29.26
301.06	37.42
301.275	38.51
301.49	24.74
301.704	24.51
301.919	28.72
302.134	17.69
302.349	27.3
302.564	30.71
302.779	16.12
302.994	13.22
303.209	21.26
303.423	11.31
303.638	-1.37
303.853	19.77
304.068	30.91
304.283	40.46
304.497	29.94
304.712	46.42
304.927	41.43
305.142	30.97
305.356	9.85
305.571	28.86
305.786	9.47
306	27.2
306.215	19.08
306.43	24.23
306.644	41.69
306.859	59.14
307.074	56.42
307.288	59.85
307.503	54.49
307.717	34.71
307.932	18.38
308.147	35.71
308.361	33.87
308.576	32.84
308.79	31.63
309.005	37.13
309.219	-2.44
309.434	10.87
309.648	14.57
309.863	18.77
310.077	22.19
310.292	34.23
310.506	29.99
310.72	39.08
310.935	51.21
311.149	45.85
311.364	31.06
311.578	37.42
311.792	39.19
312.007	31.3
312.221	37.12
312.435	44.63
312.649	40.95
312.864	24.58
313.078	5.47
313.292	21.91
313.507	21.51
313.721	48.28
313.935	44.62
314.149	45.44
314.363	38.64
314.578	40.54
314.792	27.86
315.006	35.83
315.22	31.88
315.434	20.22
315.648	7.01
315.862	-2.74
316.077	-18.17
316.291	-4.76
316.505	-7.27
316.719	6.87
316.933	25
317.147	15.34
317.361	20.83
317.575	30.86
317.789	22.56
318.003	8.47
318.217	37.43
318.431	26.42
318.645	23.48
318.859	25.05
319.073	8.37
319.287	-6.46
319.5	-8.25
319.714	-2.33
319.928	5.86
320.142	18.75
320.356	24.35
320.57	38.34
320.784	40.22
320.997	51.86
321.211	56.86
321.425	55.27
321.639	32.75
321.853	34.02
322.066	28.12
322.28	12.56
322.494	24.5
322.707	32.44
322.921	34.23
323.135	27.57
323.349	31.79
323.562	28.54
323.776	27.36
323.989	5.57
324.203	3.33
324.417	0.42
324.63	19.39
324.844	30.98
325.057	36.4
325.271	38.27
325.485	48.71
325.698	44.57
325.912	36.17
326.125	52.98
326.339	50.21
326.552	39.08
326.766	22.03
326.979	30.73
327.193	14.03
327.406	21.61
327.619	23.95
327.833	29.63
328.046	25.85
328.26	31.82
328.473	22.36
328.686	28.03
328.9	30.16
329.113	33.56
329.326	22.07
329.54	43.15
329.753	42.55
329.966	32.63
330.179	22.33
330.393	45.45
330.606	21.66
330.819	25.18
331.032	16.14
331.246	31.8
331.459	23.73
331.672	17.97
331.885	21.03
332.098	53.14
332.311	57.02
332.525	64.64
332.738	59.05
332.951	64.79
333.164	43.36
333.377	20.83
333.59	17.26
333.803	26.32
334.016	15.48
334.229	13.22
334.442	26.08
334.655	30.01
334.868	36.89
335.081	41.96
335.294	61.35
335.507	71.77
335.72	77.37
335.933	56.64
336.146	50.59
336.359	29.16
336.572	30.48
336.785	19.88
336.997	22.62
337.21	35.56
337.423	36.26
337.636	9.52
337.849	3.13
338.062	16.25
338.274	14.03
338.487	27.02
338.7	29.59
338.913	40.13
339.125	29.67
339.338	15.02
339.551	-5.63
339.763	15.71
339.976	14.7
340.189	16.88
340.402	25.68
340.614	39.35
340.827	35.66
341.039	25.82
341.252	30.89
341.465	5.98
341.677	22.13
341.89	11.85
342.102	31.44
342.315	21.03
342.527	31.11
342.74	15.1
342.952	6.2
343.165	8.87
343.377	19.84
343.59	14.98
343.802	20.49
344.015	19.74
344.227	1.77
344.44	-34.68
344.652	-0.71
344.864	1.81
345.077	21.83
345.289	25.08
345.502	37.14
345.714	22.95
345.926	29.72
346.139	28.15
346.351	22.97
346.563	24.32
346.775	27.67
346.988	12.21
347.2	10.52
347.412	23.46
347.624	18.27
347.837	-0.96
348.049	8.56
348.261	10.75
348.473	2.07
348.685	14.61
348.897	28.1
349.11	20.93
349.322	17.92
349.534	26.34
349.746	14.86
349.958	34.63
350.17	47.35
350.382	43.55
350.594	33.77
350.806	49.08
351.018	31.48
351.23	19.26
351.442	9.84
351.654	39.89
351.866	24.66
352.078	26.45
352.29	34.94
352.502	50.84
352.714	39.11
352.926	50.14
353.138	52.07
353.35	44.52
353.561	34.28
353.773	33.56
353.985	21.83
354.197	18.32
354.409	21.39
354.621	20.38
354.832	20.27
355.044	18.3
355.256	26.4
355.468	33.33
355.679	39.31
355.891	53.93
356.103	72.84
356.314	79.13
356.526	72.66
356.738	74.87
356.949	52.06
357.161	38.43
357.373	22.41
357.584	14.04
357.796	16.81
358.008	19.44
358.219	25.06
358.431	28.04
358.642	40.54
358.854	45.28
359.065	44.85
359.277	47.33
359.488	45.93
359.7	44.29
359.911	34.52
360.123	37.76
360.334	28.34
360.546	10.9
360.757	11.18
360.969	3.23
361.18	5.15
361.391	-0.7
361.603	13.52
361.814	11.21
362.025	34.32
362.237	34.43
362.448	48.72
362.659	46
362.871	48.03
363.082	32.54
363.293	23.54
363.504	21.66
363.716	14.19
363.927	2.34
364.138	10.65
364.349	9.77
364.56	-6.78
364.772	18.29
364.983	30.63
365.194	21.91
365.405	24.19
365.616	20.91
365.827	13.11
366.038	19.06
366.25	23.49
366.461	26.64
366.672	36.63
366.883	29.71
367.094	20.95
367.305	18
367.516	13.47
367.727	20.48
367.938	30.72
368.149	26.13
368.36	28
368.571	23.44
368.781	33.59
368.992	17.96
369.203	8
369.414	12.48
369.625	21.65
369.836	10.89
370.047	18.48
370.258	28.13
370.468	21.01
370.679	20.9
370.89	15.13
371.101	15.76
371.312	15.64
371.522	17.37
371.733	25.06
371.944	25.71
372.155	23.7
372.365	8.08
372.576	13.99
372.787	12.81
372.997	27.99
373.208	29.87
373.419	42.29
373.629	44.06
373.84	33.54
374.05	23.44
374.261	20
374.472	22.93
374.682	18.32
374.893	32.72
375.103	29.73
375.314	39.3
375.524	52.09
375.735	48.06
375.945	33.47
376.156	43.64
376.366	44.18
376.577	23.1
376.787	24.78
376.997	32.68
377.208	31.72
377.418	31
377.629	45.39
377.839	54.36
378.049	50.65
378.26	43.44
378.47	39.16
378.68	36.97
378.89	32.68
379.101	23.45
379.311	20.17
379.521	26.89
379.732	18.95
379.942	21.92
380.152	24.84
380.362	43.94
380.572	36.64
380.783	40.86
380.993	37.84
381.203	32.07
381.413	8.8
381.623	14.59
381.833	6.36
382.043	12.67
382.253	14.51
382.463	17.35
382.674	19.26
382.884	19.76
383.094	11.18
383.304	19.66
383.514	23.83
383.724	9.89
383.934	18.51
384.144	13.45
384.353	12.63
384.563	17.98
384.773	23.67
384.983	14.16
385.193	18.98
385.403	15.97
385.613	9.6
385.823	7.08
386.033	8.53
386.242	13.45
386.452	11.23
386.662	13.58
386.872	17.23
387.082	14.24
387.291	4.83
387.501	5.05
387.711	1.27
387.921	4.7
388.13	12.01
388.34	17.41
388.55	20.04
388.759	22.93
388.969	19
389.179	16.85
389.388	17.84
389.598	15.38
389.807	12.21
390.017	10.9
390.227	11.22
390.436	10.56
390.646	12.07
390.855	9.75
391.065	8.52
391.274	7.15
391.484	5.23
391.693	5.06
391.903	9.14
392.112	10.08
392.322	8.96
392.531	9.28
392.74	8.66
392.95	6.02
393.159	7.18
393.369	7.63
393.578	8.93
393.787	8.36
393.997	9.61
394.206	9.71
394.415	11.01
394.625	9.64
394.834	9.94
395.043	10.53
395.252	10.15
395.462	10.71
395.671	10.54
395.88	11.17
396.089	11.61
396.298	11.3
396.508	10.25
396.717	10.69
396.926	10.21
397.135	9.1
397.344	8.36
397.553	8.35
397.762	7.97
397.971	7.97
398.181	8.49
398.39	8.82
398.599	9
398.808	9.19
399.017	9.24
399.226	9.23
399.435	9.51
399.644	9.47
399.853	9.42
400.062	9.85
400.27	9.5
400.479	8.95
400.688	9
400.897	8.97
401.106	8.93
401.315	9.24
401.524	9.37
401.733	9.15
401.941	9.15
402.15	8.71
402.359	8.56
402.568	8.55
402.777	8.37
402.985	8.13
403.194	8.27
403.403	8.29
403.612	8.21
403.82	8.28
404.029	8.44
404.238	8.46
404.446	8.49
404.655	8.51
404.864	8.57
405.072	8.44
405.281	8.22
405.489	7.9
405.698	8.01
405.906	7.96
406.115	7.92
406.324	7.88
406.532	8.08
406.741	8.01
406.949	8.01
407.158	7.91
407.366	7.83
407.574	7.83
407.783	7.66
407.991	7.66
408.2	7.76
408.408	8
408.617	7.88
408.825	7.96
409.033	7.81
409.242	7.69
409.45	7.51
409.658	7.54
409.867	7.51
410.075	7.47
410.283	7.53
410.491	7.45
410.7	7.39
410.908	7.28
411.116	7.41
411.324	7.36
411.533	7.49
411.741	7.33
411.949	7.35
412.157	7.41
412.365	7.54
412.573	7.31
412.781	7.45
412.99	7.53
413.198	7.41
413.406	7.38
413.614	7.61
413.822	7.58
414.03	7.57
414.238	7.61
414.446	7.52
414.654	7.38
414.862	7.44
415.07	7.36
415.278	7.3
415.486	7.15
415.694	7.12
415.902	7.06
416.109	7.07
416.317	7.15
416.525	7.24
416.733	7.22
416.941	7.34
417.149	7.24
417.357	7.09
417.564	6.88
417.772	6.95
417.98	6.9
418.188	7.06
418.395	6.97
418.603	7.1
418.811	7.24
419.019	7.16
419.226	7.16
419.434	7.38
419.642	7.52
419.849	7.27
420.057	7.18
420.265	7.1
420.472	6.98
420.68	6.95
420.887	7.08
421.095	7.08
421.302	7.01
421.51	6.97
421.717	6.85
421.925	6.74
422.132	6.8
422.34	6.85
422.547	6.88
422.755	6.99
422.962	7.02
423.17	7.05
423.377	7.08
423.585	7.09
423.792	7.04
423.999	6.96
424.207	6.75
424.414	6.55
424.621	6.54
424.829	6.44
425.036	6.54
425.243	6.65
425.451	6.65
425.658	6.75
425.865	6.83
426.072	6.79
426.28	6.75
426.487	6.97
426.694	6.73
426.901	6.64
427.108	6.56
427.315	6.48
427.523	6.2
427.73	6.1
427.937	6.03
428.144	6.14
428.351	6.18
428.558	6.4
428.765	6.51
428.972	6.57
429.179	6.38
429.386	6.42
429.593	6.42
429.8	6.49
430.007	6.39
430.214	6.42
430.421	6.43
430.628	6.4
430.835	6.41
431.042	6.54
431.249	6.65
431.456	6.72
431.662	6.7
431.869	6.86
432.076	6.78
432.283	6.77
432.49	6.62
432.697	6.62
432.903	6.48
433.11	6.7
433.317	6.65
433.524	6.65
433.73	6.59
433.937	6.45
434.144	6.25
434.35	6.36
434.557	6.37
434.764	6.27
434.97	6.28
435.177	6.3
435.384	6.12
435.59	6.09
435.797	6.23
436.003	6.3
436.21	6.23
436.416	6.26
436.623	6.24
436.829	6.18
437.036	6.22
437.242	6.34
437.449	6.34
437.655	6.56
437.862	6.64
438.068	6.41
438.275	6.49
438.481	6.46
438.687	6.42
438.894	6.5
439.1	6.61
439.307	6.46
439.513	6.57
439.719	6.58
439.926	6.36
440.132	6.66
440.338	6.66
440.544	6.54
440.751	6.45
440.957	6.52
441.163	6.3
441.369	6.28
441.575	6.31
441.782	6.39
441.988	6.43
442.194	6.45
442.4	6.54
442.606	6.61
442.812	6.59
443.018	6.43
443.224	6.31
443.431	6.13
443.637	6.17
443.843	6.04
444.049	6.14
444.255	6.17
444.461	6.24
444.667	6.05
444.873	6.08
445.079	6.04
445.284	6.11
445.49	6.12
445.696	6.21
445.902	6.32
446.108	6.38
446.314	6.34
446.52	6.43
446.726	6.48
446.931	6.41
447.137	6.37
447.343	6.24
447.549	6.15
447.755	6.08
447.96	6.03
448.166	6.03
448.372	6.17
448.578	6.21
448.783	6.39
448.989	6.42
449.195	6.35
449.4	6.43
449.606	6.34
449.812	6.2
450.017	6.2
450.223	6.31
450.428	6.15
450.634	6.14
450.84	6.07
451.045	6.03
451.251	6.09
451.456	6.13
451.662	6.2
451.867	6.24
452.073	6.27
452.278	6.19
452.483	6.2
452.689	6.22
452.894	6.23
453.1	6.22
453.305	6.14
453.51	6.2
453.716	6.09
453.921	6.09
454.127	6.13
454.332	6.14
454.537	6.15
454.742	6.12
454.948	6.07
455.153	6.1
455.358	6.14
455.563	6.06
455.769	6.13
455.974	6.17
456.179	6.08
456.384	5.95
456.589	6.09
456.795	6.03
457	6.04
457.205	5.93
457.41	6.04
457.615	5.91
457.82	5.9
458.025	5.77
458.23	5.93
458.435	5.9
458.64	5.86
458.845	5.96
459.05	6
459.255	6
459.46	6.05
459.665	6.13
459.87	6.12
460.075	6.27
460.28	6.3
460.485	6.35
460.69	6.35
460.895	6.31
461.099	6.23
461.304	6.13
461.509	6.05
461.714	6.08
461.919	6.13
462.123	6.16
462.328	6.18
462.533	6.26
462.738	6.26
462.942	6.19
463.147	6.23
463.352	6.22
463.556	6.19
463.761	6.1
463.966	6.05
464.17	6.11
464.375	6.12
464.58	6.06
464.784	6.17
464.989	6.24
465.193	6.17
465.398	6.18
465.602	6.29
465.807	6.21
466.011	6.27
466.216	6.17
466.42	6.26
466.625	6.17
466.829	6.2
467.034	6.29
467.238	6.37
467.443	6.34
467.647	6.3
467.851	6.34
468.056	6.2
