Data from Ofav_PP_2HS2_Reflection_1.txt Node
Date: Tue Jul 27 19:02:42 EDT 2021
User: USUARIO
Spectrometer: FLMT01687
Trigger mode: 0
Integration Time (sec): 8.500000E-1
Scans to average: 2
Electric dark correction enabled: true
Nonlinearity correction enabled: false
Boxcar width: 2
XAxis mode: Wavelengths
Number of Pixels in Spectrum: 3648
>>>>>Begin Spectral Data<<<<<
179.494	-41.48
179.716	-44.89
179.937	-2.53
180.158	-8.99
180.38	-25.29
180.601	-189.8
180.823	90.72
181.044	57.44
181.265	47.32
181.486	7.13
181.708	-47.76
181.929	113.32
182.15	-16.5
182.372	28.32
182.593	27.86
182.814	81.64
183.035	87.95
183.257	85.4
183.478	56.51
183.699	55.24
183.92	48.78
184.141	56.41
184.363	82.6
184.584	104.21
184.805	122.97
185.026	90.47
185.247	98.64
185.468	72.26
185.689	44.59
185.91	0.65
186.132	-7.8
186.353	-9.37
186.574	-2.47
186.795	13.6
187.016	34.39
187.237	44.85
187.458	56.84
187.679	50.37
187.9	22.06
188.121	40.43
188.342	60.15
188.563	45.82
188.784	68.69
189.005	86.92
189.226	71.28
189.447	60.57
189.667	67.7
189.888	62.89
190.109	52.06
190.33	43.42
190.551	27.09
190.772	15.6
190.993	14.02
191.214	15.48
191.434	21.22
191.655	34.08
191.876	32.37
192.097	33.01
192.318	48.61
192.538	49.91
192.759	59.01
192.98	71.15
193.201	68.03
193.421	85.22
193.642	46.03
193.863	40.52
194.083	39.15
194.304	26.81
194.525	-7
194.745	-7.4
194.966	-53.23
195.187	-77.11
195.407	-41.25
195.628	-12.35
195.848	17.76
196.069	28.27
196.29	49.52
196.51	44.14
196.731	40.22
196.951	41.12
197.172	49.48
197.392	48.78
197.613	73.32
197.833	71.88
198.054	82.1
198.274	80.55
198.495	96.71
198.715	99.13
198.936	101.32
199.156	90.01
199.377	114.17
199.597	89.23
199.817	61.27
200.038	101.87
200.258	73.5
200.479	30.4
200.699	40.51
200.919	21.06
201.14	18.88
201.36	16.26
201.58	17.2
201.801	15.91
202.021	8.61
202.241	15.56
202.461	17.74
202.682	12.84
202.902	-17.09
203.122	27.9
203.342	32.72
203.563	32.99
203.783	40.9
204.003	36.46
204.223	33.45
204.443	25.08
204.663	20.32
204.884	31.6
205.104	54.77
205.324	60.5
205.544	75.25
205.764	62.38
205.984	63
206.204	62.21
206.424	76.3
206.644	58.26
206.864	59.74
207.084	45.4
207.304	68.27
207.525	53.72
207.745	50.9
207.964	57.7
208.184	63.02
208.404	47.81
208.624	46.9
208.844	53.73
209.064	61.64
209.284	57.21
209.504	63.88
209.724	82.68
209.944	73.93
210.164	44.32
210.384	73.92
210.604	60.86
210.823	49.16
211.043	53.71
211.263	60.39
211.483	61.57
211.703	62.21
211.922	63.94
212.142	72.65
212.362	47.85
212.582	34.43
212.801	48.61
213.021	33.92
213.241	10.93
213.461	4.62
213.68	8.25
213.9	-42.38
214.12	-20.45
214.339	1.5
214.559	6.91
214.779	10.26
214.998	26.51
215.218	21.76
215.438	36
215.657	50.35
215.877	50.9
216.096	52.7
216.316	63.01
216.535	47.46
216.755	51.42
216.974	59.09
217.194	60.26
217.413	58.71
217.633	52.16
217.852	50.87
218.072	47.74
218.291	50.78
218.511	56.84
218.73	61.04
218.95	52.05
219.169	61.03
219.389	59.33
219.608	50.49
219.827	77.91
220.047	88.09
220.266	66.95
220.485	62.65
220.705	72.95
220.924	63.91
221.143	47.84
221.363	42.55
221.582	36.11
221.801	23.79
222.021	28.24
222.24	53.28
222.459	34.65
222.678	31.19
222.897	32.6
223.117	43.86
223.336	37.2
223.555	48.9
223.774	54.77
223.993	57.36
224.213	39
224.432	35.5
224.651	43.05
224.87	28.62
225.089	19.91
225.308	11.47
225.527	13.11
225.746	4.14
225.965	36.65
226.184	43.5
226.404	54.86
226.623	38.03
226.842	33.58
227.061	1.82
227.28	8.14
227.499	30
227.718	32.91
227.936	44.4
228.155	46.25
228.374	50.15
228.593	45.52
228.812	63.73
229.031	64.02
229.25	62.05
229.469	56.78
229.688	32.07
229.907	-11.51
230.125	2.79
230.344	18.49
230.563	31.78
230.782	36.61
231.001	40.32
231.22	37.64
231.438	25.24
231.657	12.22
231.876	30.13
232.095	33.16
232.313	18.47
232.532	20.04
232.751	36.26
232.969	28.04
233.188	39.52
233.407	48.1
233.625	62.55
233.844	40.39
234.063	44.66
234.281	27.76
234.5	21.7
234.719	44.14
234.937	37.77
235.156	28.9
235.374	27.03
235.593	39.67
235.811	18.15
236.03	37.67
236.249	40.33
236.467	62.8
236.686	55.81
236.904	61.24
237.123	65.22
237.341	63.98
237.559	52.47
237.778	47.44
237.996	37.03
238.215	31.37
238.433	30.57
238.652	20.81
238.87	17.48
239.088	22.81
239.307	24.27
239.525	4.51
239.743	9.7
239.962	12.42
240.18	15.46
240.398	13.18
240.617	26.74
240.835	46.74
241.053	60.14
241.271	49.25
241.49	49.13
241.708	56.8
241.926	46.19
242.144	34.32
242.363	43.27
242.581	38.98
242.799	18.85
243.017	4.67
243.235	23.91
243.453	29.46
243.672	32.82
243.89	36.77
244.108	35.02
244.326	18.88
244.544	6.35
244.762	9.2
244.98	31.35
245.198	35.89
245.416	50.65
245.634	61.21
245.852	66.62
246.07	53.13
246.288	50.47
246.506	45.72
246.724	33.26
246.942	35.18
247.16	32.58
247.378	15.17
247.596	28.31
247.814	34.96
248.032	29.73
248.25	18.26
248.468	38.21
248.685	35.3
248.903	33.18
249.121	36.13
249.339	58.09
249.557	46.37
249.775	16.81
249.992	11.35
250.21	14.18
250.428	3.87
250.646	6.8
250.863	19.09
251.081	33.39
251.299	36.87
251.517	32.93
251.734	50.24
251.952	51.73
252.17	26.11
252.387	3.36
252.605	6.11
252.823	13.57
253.04	38.61
253.258	47.18
253.475	44.92
253.693	59.29
253.911	52.41
254.128	43.08
254.346	45.47
254.563	64.73
254.781	52.95
254.998	62.92
255.216	34.77
255.433	35.35
255.651	29.43
255.868	31.69
256.086	23.08
256.303	37.55
256.521	35
256.738	39.31
256.956	19.13
257.173	26.02
257.39	17.56
257.608	36.02
257.825	26.94
258.043	50.18
258.26	55.3
258.477	68.22
258.695	53.25
258.912	68.47
259.129	71.54
259.346	61.63
259.564	53.09
259.781	65.55
259.998	40.73
260.216	40.1
260.433	44.54
260.65	44.87
260.867	29.73
261.084	32.85
261.302	24.29
261.519	29.86
261.736	14.49
261.953	35.82
262.17	40.4
262.387	34.57
262.604	31.15
262.822	61.94
263.039	58.12
263.256	59.76
263.473	68.19
263.69	74.13
263.907	45.16
264.124	37.1
264.341	41.45
264.558	45.98
264.775	51.95
264.992	59.87
265.209	55.94
265.426	56.54
265.643	62.8
265.86	48.14
266.077	58.6
266.294	62.15
266.51	52.93
266.727	55.3
266.944	56.1
267.161	32.11
267.378	18.72
267.595	26.15
267.812	22.04
268.028	37.35
268.245	50.12
268.462	51.98
268.679	34.01
268.896	27.89
269.112	6.63
269.329	13.51
269.546	30.58
269.763	33.37
269.979	33.26
270.196	51.74
270.413	58.91
270.629	61.63
270.846	76.47
271.063	71.63
271.279	76.34
271.496	48.64
271.712	30.68
271.929	0.67
272.146	-10.3
272.362	-4.04
272.579	14.03
272.795	12.68
273.012	24.44
273.228	27.03
273.445	22.48
273.661	26.21
273.878	31.99
274.094	25.06
274.311	35.57
274.527	34.63
274.744	25.02
274.96	33.26
275.177	22.19
275.393	13.05
275.609	14.19
275.826	13.78
276.042	7.57
276.259	28.85
276.475	23.35
276.691	26.9
276.908	32.12
277.124	37.53
277.34	40.78
277.557	37.29
277.773	39.64
277.989	46.84
278.205	42.12
278.422	41.98
278.638	41.04
278.854	51.6
279.07	41.16
279.286	50.65
279.503	45.28
279.719	55.82
279.935	49.94
280.151	58.5
280.367	52.65
280.583	56.72
280.799	58.76
281.016	63.68
281.232	50.21
281.448	49.73
281.664	40.87
281.88	29.51
282.096	24.84
282.312	31.13
282.528	22.62
282.744	17.72
282.96	32.59
283.176	42.53
283.392	43.74
283.608	52.81
283.824	49.76
284.04	20.66
284.256	16.73
284.471	16.9
284.687	11.3
284.903	29.05
285.119	37.55
285.335	34.9
285.551	24.44
285.767	39.52
285.982	26.29
286.198	46.24
286.414	50.76
286.63	59.28
286.846	37.61
287.061	37.66
287.277	27.76
287.493	21.88
287.709	15.56
287.924	22.45
288.14	12.33
288.356	30.27
288.571	38.15
288.787	44.44
289.003	41.22
289.218	59.14
289.434	50.86
289.65	40.14
289.865	26.21
290.081	38.73
290.296	18.85
290.512	13.07
290.727	22.2
290.943	32.47
291.159	34.56
291.374	38.47
291.59	49.82
291.805	42.03
292.021	51.38
292.236	44.26
292.451	50.28
292.667	47.23
292.882	39.18
293.098	28.78
293.313	37.6
293.529	47.03
293.744	48.88
293.959	65.63
294.175	71.13
294.39	61.65
294.605	58.28
294.821	42.05
295.036	25.14
295.251	6.73
295.467	-11.66
295.682	-30.34
295.897	5.75
296.112	29.26
296.328	14.32
296.543	39.18
296.758	38.05
296.973	31.12
297.188	26.93
297.404	38.24
297.619	35.79
297.834	26.52
298.049	30.67
298.264	29.52
298.479	23.84
298.694	14.94
298.909	23.73
299.125	24.13
299.34	25.08
299.555	34.22
299.77	36.13
299.985	41.83
300.2	40.74
300.415	43.44
300.63	34.49
300.845	41.03
301.06	33.46
301.275	31.21
301.49	23.6
301.704	18.7
301.919	25.1
302.134	33.53
302.349	32.83
302.564	35.62
302.779	33.45
302.994	32.47
303.209	30.05
303.423	35.07
303.638	13.41
303.853	17.91
304.068	15.61
304.283	2.82
304.497	-8.93
304.712	7.73
304.927	10.9
305.142	20.58
305.356	17.86
305.571	37.49
305.786	41.23
306	22.99
306.215	14.71
306.43	31.55
306.644	44.04
306.859	56.1
307.074	68
307.288	64.97
307.503	58.29
307.717	47.87
307.932	38.69
308.147	41.68
308.361	43.66
308.576	37.85
308.79	42.1
309.005	44.72
309.219	34.74
309.434	27.49
309.648	32.57
309.863	14.09
310.077	3.93
310.292	9.28
310.506	6.9
310.72	8.39
310.935	4.44
311.149	17.14
311.364	22.4
311.578	34.37
311.792	44.32
312.007	56.26
312.221	51.33
312.435	45.34
312.649	40.5
312.864	29.93
313.078	13.89
313.292	29.28
313.507	29.4
313.721	53.24
313.935	46.45
314.149	43.17
314.363	39.54
314.578	47.84
314.792	46.05
315.006	58.04
315.22	74.56
315.434	60.72
315.648	54
315.862	34.07
316.077	10.44
316.291	13.47
316.505	22.57
316.719	21.49
316.933	39.03
317.147	47.73
317.361	46.22
317.575	45.06
317.789	39.39
318.003	35.01
318.217	26.1
318.431	1.14
318.645	3.59
318.859	0.9
319.073	9.87
319.287	11.18
319.5	13.78
319.714	12.17
319.928	18.74
320.142	8.28
320.356	27.73
320.57	52.04
320.784	58.13
320.997	59.03
321.211	57.73
321.425	43.05
321.639	28.66
321.853	27.47
322.066	25.05
322.28	25.98
322.494	35.93
322.707	43.51
322.921	38.54
323.135	39.95
323.349	46.5
323.562	46.41
323.776	37.53
323.989	27.57
324.203	28.95
324.417	22.88
324.63	45.86
324.844	64.61
325.057	76.81
325.271	76.19
325.485	58.58
325.698	52.06
325.912	30.19
326.125	33.37
326.339	38.03
326.552	45.35
326.766	32.69
326.979	47.57
327.193	55.87
327.406	44.9
327.619	26.84
327.833	28.68
328.046	31.26
328.26	27.6
328.473	18.98
328.686	37.55
328.9	45.18
329.113	31.95
329.326	18.46
329.54	50.6
329.753	37.92
329.966	29.07
330.179	37.37
330.393	34.46
330.606	17.64
330.819	20.62
331.032	10.33
331.246	14.77
331.459	20.09
331.672	24.98
331.885	10.54
332.098	28.83
332.311	28.32
332.525	39.88
332.738	38.6
332.951	66.9
333.164	56.28
333.377	44.88
333.59	39.53
333.803	42.63
334.016	11.97
334.229	13.72
334.442	39.3
334.655	47.27
334.868	39.64
335.081	56.35
335.294	67.28
335.507	66.75
335.72	61.48
335.933	59.36
336.146	60.94
336.359	54.29
336.572	61.19
336.785	58.6
336.997	73.17
337.21	70.04
337.423	54.87
337.636	36.75
337.849	31.47
338.062	36.86
338.274	36.85
338.487	65.37
338.7	55.79
338.913	61.44
339.125	62.31
339.338	61.64
339.551	24.34
339.763	40.67
339.976	28.24
340.189	24.23
340.402	28.04
340.614	29.93
340.827	24.07
341.039	22
341.252	13.72
341.465	-26.5
341.677	-12.68
341.89	-15.85
342.102	2.12
342.315	18.48
342.527	37.17
342.74	41.08
342.952	22.83
343.165	37.54
343.377	29.23
343.59	29.28
343.802	23.38
344.015	33.15
344.227	14.35
344.44	-7.39
344.652	-19.2
344.864	-21.76
345.077	-1.75
345.289	-2.68
345.502	4.63
345.714	21.53
345.926	16.93
346.139	15.91
346.351	15.39
346.563	16.58
346.775	13.04
346.988	10.85
347.2	3.72
347.412	13.64
347.624	10.1
347.837	-14.9
348.049	-17.15
348.261	-13.36
348.473	-18.1
348.685	-2.56
348.897	-1.31
349.11	11.76
349.322	9.39
349.534	21.57
349.746	23.43
349.958	36.67
350.17	38.47
350.382	41.6
350.594	31.25
350.806	29.72
351.018	15.99
351.23	17.14
351.442	-0.99
351.654	19.62
351.866	8.88
352.078	14.53
352.29	12.42
352.502	29.12
352.714	32.54
352.926	42.2
353.138	54
353.35	50.78
353.561	48.2
353.773	28.31
353.985	11.28
354.197	-5.08
354.409	-7.43
354.621	8.05
354.832	29.68
355.044	38.79
355.256	54.76
355.468	64.16
355.679	59.68
355.891	52.65
356.103	59.91
356.314	49.68
356.526	57.71
356.738	49.55
356.949	49.58
357.161	41.11
357.373	40.67
357.584	40.23
357.796	61.26
358.008	63.46
358.219	67.77
358.431	76.98
358.642	65.54
358.854	56.48
359.065	47.35
359.277	52.83
359.488	49.81
359.7	46.02
359.911	34.69
360.123	36.08
360.334	15.88
360.546	-5.06
360.757	8.15
360.969	2.68
361.18	6.02
361.391	24.06
361.603	31.8
361.814	27.53
362.025	35.68
362.237	34.64
362.448	35.11
362.659	36.67
362.871	34.51
363.082	39.49
363.293	39.09
363.504	28.2
363.716	21.51
363.927	11.75
364.138	0.11
364.349	6.75
364.56	14.29
364.772	12.52
364.983	14.5
365.194	14.7
365.405	12.31
365.616	5.9
365.827	22.11
366.038	24.83
366.25	17.25
366.461	15.3
366.672	31.89
366.883	17.89
367.094	11.63
367.305	21.48
367.516	13.86
367.727	17.32
367.938	18.26
368.149	20
368.36	15.59
368.571	15.71
368.781	14.72
368.992	16
369.203	20
369.414	24.42
369.625	30.8
369.836	31.37
370.047	29.84
370.258	36.4
370.468	33.09
370.679	22.71
370.89	22.63
371.101	17.45
371.312	11.51
371.522	15.54
371.733	30.43
371.944	34.99
372.155	41.52
372.365	38.74
372.576	41.7
372.787	44.03
372.997	44.39
373.208	43.76
373.419	45.94
373.629	49.19
373.84	44.65
374.05	36.56
374.261	34.96
374.472	31.57
374.682	19.22
374.893	27.16
375.103	33.53
375.314	33.08
375.524	44.8
375.735	36.53
375.945	18.29
376.156	21.39
376.366	20.38
376.577	17.07
376.787	22.1
376.997	26.1
377.208	34.3
377.418	35.56
377.629	39.11
377.839	43.34
378.049	49.95
378.26	43.75
378.47	40.24
378.68	43.99
378.89	38.99
379.101	32.56
379.311	28.35
379.521	22.4
379.732	18.01
379.942	33.62
380.152	30.73
380.362	22.68
380.572	16.75
380.783	9.47
380.993	-9.17
381.203	-7.61
381.413	-2.53
381.623	10.3
381.833	8.5
382.043	15.87
382.253	20.24
382.463	13.47
382.674	14.63
382.884	11.77
383.094	13.41
383.304	21.32
383.514	31.31
383.724	19.13
383.934	18.98
384.144	9.2
384.353	0.2
384.563	0.77
384.773	12.82
384.983	11.96
385.193	12.39
385.403	17.34
385.613	13.47
385.823	4.31
386.033	0.93
386.242	5.07
386.452	1.53
386.662	7.41
386.872	13.63
387.082	15.89
387.291	11.03
387.501	14.17
387.711	10.38
387.921	7
388.13	11.32
388.34	15.09
388.55	14.5
388.759	12.57
388.969	13.93
389.179	11.55
389.388	12.71
389.598	11.52
389.807	10.79
390.017	8.09
390.227	9.83
390.436	6.52
390.646	6.15
390.855	5.82
391.065	7.35
391.274	6.88
391.484	7.46
391.693	6.89
391.903	7.62
392.112	7.06
392.322	4.97
392.531	4.64
392.74	5.38
392.95	5.19
393.159	5.7
393.369	6.34
393.578	6.66
393.787	4.97
393.997	5.79
394.206	6.87
394.415	6.84
394.625	7.01
394.834	7.42
395.043	7.43
395.252	5.85
395.462	5.81
395.671	5.13
395.88	5.93
396.089	6.01
396.298	6.33
396.508	6.44
396.717	6.95
396.926	6.4
397.135	5.98
397.344	5.87
397.553	5.93
397.762	5.5
397.971	5.77
398.181	5.71
398.39	5.37
398.599	5.22
398.808	5.61
399.017	5.99
399.226	6.09
399.435	6.39
399.644	6.55
399.853	6.46
400.062	6.26
400.27	5.84
400.479	5.58
400.688	5.24
400.897	5.16
401.106	5.02
401.315	5.56
401.524	5.51
401.733	5.53
401.941	5.64
402.15	5.55
402.359	5.22
402.568	5.3
402.777	5.35
402.985	5.11
403.194	5.18
403.403	5.29
403.612	5.24
403.82	5.19
404.029	5.27
404.238	5.33
404.446	5.17
404.655	5.29
404.864	5.37
405.072	5.25
405.281	5.2
405.489	5.12
405.698	5.01
405.906	4.94
406.115	4.95
406.324	4.8
406.532	4.72
406.741	4.73
406.949	4.85
407.158	4.84
407.366	4.65
407.574	4.81
407.783	4.8
407.991	4.67
408.2	4.69
408.408	4.95
408.617	4.87
408.825	4.76
409.033	4.64
409.242	4.62
409.45	4.61
409.658	4.55
409.867	4.65
410.075	4.6
410.283	4.56
410.491	4.5
410.7	4.52
410.908	4.45
411.116	4.44
411.324	4.44
411.533	4.44
411.741	4.37
411.949	4.33
412.157	4.45
412.365	4.6
412.573	4.58
412.781	4.53
412.99	4.58
413.198	4.64
413.406	4.41
413.614	4.39
413.822	4.55
414.03	4.57
414.238	4.41
414.446	4.39
414.654	4.46
414.862	4.52
415.07	4.33
415.278	4.33
415.486	4.4
415.694	4.27
415.902	4.18
416.109	4.24
416.317	4.29
416.525	4.24
416.733	4.22
416.941	4.33
417.149	4.36
417.357	4.31
417.564	4.15
417.772	4.15
417.98	3.99
418.188	4.17
418.395	4.25
418.603	4.46
418.811	4.5
419.019	4.36
419.226	4.24
419.434	4.23
419.642	4.25
419.849	4.18
420.057	4.3
420.265	4.24
420.472	4.1
420.68	3.85
420.887	3.81
421.095	3.83
421.302	3.77
421.51	3.88
421.717	3.95
421.925	3.92
422.132	3.84
422.34	3.83
422.547	3.76
422.755	4.02
422.962	4.03
423.17	4.04
423.377	4.05
423.585	4.18
423.792	3.91
423.999	3.88
424.207	3.79
424.414	3.79
424.621	3.74
424.829	3.65
425.036	3.73
425.243	3.83
425.451	3.85
425.658	3.77
425.865	4.03
426.072	4.08
426.28	4
426.487	4.1
426.694	4.08
426.901	3.92
427.108	3.87
427.315	3.97
427.523	3.75
427.73	3.68
427.937	3.71
428.144	3.69
428.351	3.39
428.558	3.66
428.765	3.63
428.972	3.66
429.179	3.55
429.386	3.83
429.593	3.56
429.8	3.75
430.007	3.57
430.214	3.64
430.421	3.63
430.628	3.73
430.835	3.7
431.042	3.75
431.249	3.76
431.456	3.82
431.662	3.96
431.869	3.87
432.076	3.98
432.283	3.95
432.49	3.96
432.697	3.78
432.903	3.87
433.11	4
433.317	3.93
433.524	3.82
433.73	3.81
433.937	3.72
434.144	3.55
434.35	3.54
434.557	3.47
434.764	3.44
434.97	3.45
435.177	3.44
435.384	3.43
435.59	3.45
435.797	3.51
436.003	3.52
436.21	3.41
436.416	3.5
436.623	3.47
436.829	3.35
437.036	3.24
437.242	3.3
437.449	3.25
437.655	3.31
437.862	3.53
438.068	3.61
438.275	3.61
438.481	3.55
438.687	3.58
438.894	3.45
439.1	3.45
439.307	3.41
439.513	3.56
439.719	3.67
439.926	3.61
440.132	3.78
440.338	3.73
440.544	3.72
440.751	3.54
440.957	3.6
441.163	3.42
441.369	3.54
441.575	3.52
441.782	3.63
441.988	3.64
442.194	3.68
442.4	3.7
442.606	3.6
442.812	3.65
443.018	3.68
443.224	3.65
443.431	3.53
443.637	3.66
443.843	3.49
444.049	3.45
444.255	3.39
444.461	3.32
444.667	3.23
444.873	3.25
445.079	3.25
445.284	3.26
445.49	3.42
445.696	3.43
445.902	3.47
446.108	3.54
446.314	3.56
446.52	3.59
446.726	3.69
446.931	3.68
447.137	3.67
447.343	3.58
447.549	3.41
447.755	3.3
447.96	3.38
448.166	3.33
448.372	3.51
448.578	3.6
448.783	3.76
448.989	3.68
449.195	3.57
449.4	3.44
449.606	3.42
449.812	3.35
450.017	3.39
450.223	3.4
450.428	3.42
450.634	3.37
450.84	3.25
451.045	3.22
451.251	3.32
451.456	3.41
451.662	3.45
451.867	3.59
452.073	3.47
452.278	3.39
452.483	3.29
452.689	3.32
452.894	3.28
453.1	3.41
453.305	3.38
453.51	3.49
453.716	3.39
453.921	3.33
454.127	3.29
454.332	3.27
454.537	3.29
454.742	3.2
454.948	3.15
455.153	3.29
455.358	3.35
455.563	3.25
455.769	3.38
455.974	3.4
456.179	3.2
456.384	3.09
456.589	3.12
456.795	2.95
457	3.04
457.205	3.05
457.41	3.09
457.615	2.96
457.82	3.11
458.025	2.96
458.23	3.01
458.435	3
458.64	2.97
458.845	2.85
459.05	2.81
459.255	2.88
459.46	2.94
459.665	3.01
459.87	3.1
460.075	3.2
460.28	3.08
460.485	3.11
460.69	3.05
460.895	3.08
461.099	3.13
461.304	3.21
461.509	3.09
461.714	3.19
461.919	3.22
462.123	3.21
462.328	3.19
462.533	3.22
462.738	3.24
462.942	3.18
463.147	3.19
463.352	3.13
463.556	3.14
463.761	3.06
463.966	3.04
464.17	3.01
464.375	3.09
464.58	3.06
464.784	3.12
464.989	3.14
465.193	3.12
465.398	3.15
465.602	3.25
465.807	3.21
466.011	3.19
466.216	3.11
466.42	3.07
466.625	2.92
466.829	2.89
467.034	2.97
467.238	3.07
467.443	3.06
467.647	3.15
467.851	3.16
468.056	3.12
468.26	3.16
468.464	3.12
468.669	3.13
468.873	3.15
469.077	3.11
