Data from Ofav_PP_Phys_362_Reflection_2.txt Node
Date: Tue Jul 27 19:09:35 EDT 2021
User: USUARIO
Spectrometer: FLMT01687
Trigger mode: 0
Integration Time (sec): 8.500000E-1
Scans to average: 2
Electric dark correction enabled: true
Nonlinearity correction enabled: false
Boxcar width: 2
XAxis mode: Wavelengths
Number of Pixels in Spectrum: 3648
>>>>>Begin Spectral Data<<<<<
179.494	-2202.96
179.716	-672.85
179.937	-462.58
180.158	-357.62
180.38	-373.08
180.601	-206.64
180.823	100.31
181.044	71.32
181.265	64.46
181.486	-9.6
181.708	-10.63
181.929	82.99
182.15	106.96
182.372	90.85
182.593	35.68
182.814	55.45
183.035	93.94
183.257	63.36
183.478	59.44
183.699	55.8
183.92	58.63
184.141	45.67
184.363	66.1
184.584	85.98
184.805	97.75
185.026	84.4
185.247	90.15
185.468	65.22
185.689	28.58
185.91	20.43
186.132	12.6
186.353	18.95
186.574	19.4
186.795	51.21
187.016	57.8
187.237	66.01
187.458	67.76
187.679	80.25
187.9	43.58
188.121	49.72
188.342	65.12
188.563	62.98
188.784	68.48
189.005	82.42
189.226	71.86
189.447	59.22
189.667	79.37
189.888	69.66
190.109	80.55
190.33	91.29
190.551	68.31
190.772	50.84
190.993	40.24
191.214	28.27
191.434	23.66
191.655	46.96
191.876	47.01
192.097	43.81
192.318	57.49
192.538	75.5
192.759	58.1
192.98	38.91
193.201	36.03
193.421	33.66
193.642	16.04
193.863	6.52
194.083	4.71
194.304	-8.27
194.525	-33.6
194.745	-65.04
194.966	-88.08
195.187	-115.11
195.407	-30.49
195.628	1.73
195.848	17.48
196.069	28.33
196.29	61.04
196.51	44.21
196.731	28.17
196.951	33.46
197.172	5.65
197.392	33.11
197.613	12.19
197.833	34.53
198.054	49.21
198.274	57.68
198.495	56.83
198.715	72.37
198.936	24.72
199.156	13.53
199.377	45.45
199.597	20.11
199.817	47.34
200.038	86.52
200.258	95
200.479	27.1
200.699	35.15
200.919	19.95
201.14	19.09
201.36	1.25
201.58	26.08
201.801	4.46
202.021	5.53
202.241	43.11
202.461	41.28
202.682	8.84
202.902	20.84
203.122	37.18
203.342	-6.55
203.563	11.12
203.783	21.69
204.003	27.07
204.223	32.3
204.443	31.46
204.663	20.77
204.884	26.82
205.104	12.73
205.324	18.09
205.544	39.46
205.764	36.51
205.984	30.61
206.204	39.23
206.424	6.65
206.644	11.53
206.864	37.9
207.084	26.01
207.304	38.94
207.525	48.47
207.745	57.68
207.964	52.74
208.184	62.46
208.404	58.82
208.624	49.67
208.844	55.81
209.064	62.66
209.284	63.98
209.504	68.83
209.724	58.64
209.944	6.7
210.164	-31.57
210.384	-36.48
210.604	-60.54
210.823	-7.45
211.043	21.16
211.263	32.74
211.483	38.49
211.703	49.4
211.922	55.15
212.142	74.38
212.362	38.26
212.582	40.59
212.801	40.07
213.021	59.4
213.241	45.07
213.461	70.55
213.68	52.48
213.9	40.62
214.12	29.43
214.339	45.33
214.559	40.7
214.779	24.75
214.998	9.88
215.218	0.94
215.438	12.05
215.657	15.19
215.877	17.66
216.096	36.25
216.316	52.89
216.535	22.73
216.755	33.64
216.974	52.94
217.194	56.29
217.413	56.06
217.633	62.53
217.852	34.68
218.072	21.68
218.291	10.6
218.511	-11.12
218.73	-8.58
218.95	-24.84
219.169	-16.48
219.389	-26.86
219.608	-21.13
219.827	0.52
220.047	22.18
220.266	23.71
220.485	30.39
220.705	46.5
220.924	45.62
221.143	41.14
221.363	22.55
221.582	13.05
221.801	1.54
222.021	8.04
222.24	19.49
222.459	19.75
222.678	22.51
222.897	18.86
223.117	8.16
223.336	-17.65
223.555	-3.74
223.774	-7.74
223.993	-15.55
224.213	-4.08
224.432	24.08
224.651	42.39
224.87	42.74
225.089	51.62
225.308	29.56
225.527	31.15
225.746	25
225.965	26.9
226.184	0.82
226.404	29.47
226.623	8.35
226.842	5.78
227.061	1.22
227.28	17.62
227.499	14.54
227.718	23.47
227.936	31.97
228.155	53.64
228.374	57.62
228.593	63.92
228.812	73.39
229.031	63.28
229.25	63.89
229.469	56.57
229.688	25.22
229.907	-24.11
230.125	12.63
230.344	8.38
230.563	20.92
230.782	37.44
231.001	35.32
231.22	24.43
231.438	3.57
231.657	-7.52
231.876	-16.12
232.095	0.46
232.313	8.52
232.532	19.26
232.751	26.06
232.969	31.81
233.188	43.91
233.407	34.98
233.625	48.67
233.844	51.85
234.063	49.36
234.281	41.93
234.5	26.16
234.719	36.78
234.937	13.31
235.156	5.7
235.374	1.37
235.593	11.94
235.811	0.32
236.03	5.23
236.249	12.49
236.467	24.26
236.686	23.7
236.904	26.85
237.123	34.48
237.341	39.03
237.559	35.93
237.778	45.06
237.996	33.4
238.215	35
238.433	36.82
238.652	26.05
238.87	12.6
239.088	12.14
239.307	19.71
239.525	-5.24
239.743	-8.84
239.962	4.3
240.18	20.03
240.398	19.83
240.617	25.56
240.835	34.44
241.053	27.95
241.271	10.35
241.49	15.27
241.708	27.11
241.926	25.34
242.144	5.98
242.363	13.19
242.581	17.88
242.799	0.99
243.017	-16.66
243.235	-9.95
243.453	-12.94
243.672	-27.8
243.89	-22.33
244.108	7.93
244.326	14.68
244.544	3.5
244.762	5.19
244.98	24.79
245.198	20.65
245.416	36.78
245.634	53.64
245.852	76.58
246.07	67.67
246.288	51.24
246.506	44.49
246.724	45.76
246.942	41.33
247.16	33.94
247.378	34.88
247.596	37.64
247.814	41.74
248.032	31.3
248.25	46.04
248.468	38.87
248.685	35.55
248.903	21.74
249.121	35.76
249.339	18.49
249.557	26.37
249.775	-3.44
249.992	-29.93
250.21	-23.02
250.428	-27.54
250.646	-35.21
250.863	-9.7
251.081	35.37
251.299	39.51
251.517	35.51
251.734	48.46
251.952	37.76
252.17	41.15
252.387	18.38
252.605	33.27
252.823	35.23
253.04	52.15
253.258	53.58
253.475	63.32
253.693	67.18
253.911	74
254.128	56.11
254.346	38.88
254.563	27.31
254.781	10.61
254.998	8.52
255.216	-17.45
255.433	-11.03
255.651	4.1
255.868	4.29
256.086	-13.1
256.303	10.23
256.521	39.91
256.738	24.22
256.956	33.3
257.173	45.32
257.39	42.21
257.608	26.03
257.825	50.68
258.043	48.48
258.26	49.3
258.477	50.4
258.695	46.53
258.912	29.49
259.129	29.04
259.346	34.72
259.564	43.28
259.781	59.87
259.998	60.96
260.216	68.69
260.433	52.63
260.65	54.07
260.867	46.2
261.084	62.14
261.302	32.51
261.519	32.93
261.736	27.55
261.953	25.88
262.17	17.31
262.387	30.61
262.604	41.72
262.822	48.76
263.039	41.48
263.256	54.7
263.473	61.59
263.69	54.95
263.907	29.08
264.124	45.1
264.341	41.48
264.558	38.44
264.775	30.7
264.992	58
265.209	52.84
265.426	40.9
265.643	31.4
265.86	34.74
266.077	18.62
266.294	23.59
266.51	40.2
266.727	46.52
266.944	48.28
267.161	53.67
267.378	45.59
267.595	44.4
267.812	53.14
268.028	61.74
268.245	56.99
268.462	63.17
268.679	35.72
268.896	29.4
269.112	23.6
269.329	29.69
269.546	36.04
269.763	38.09
269.979	39.49
270.196	34.06
270.413	46.07
270.629	42.99
270.846	44.54
271.063	37.24
271.279	38.46
271.496	-2.57
271.712	-6.85
271.929	-14.97
272.146	-59.76
272.362	-44.57
272.579	-20.99
272.795	-7.01
273.012	2.7
273.228	21.13
273.445	30.67
273.661	32.8
273.878	14.07
274.094	9.03
274.311	20.53
274.527	12.56
274.744	10.24
274.96	21.22
275.177	11.44
275.393	-4.04
275.609	6.26
275.826	-0.98
276.042	-5.66
276.259	25.84
276.475	17.85
276.691	16.3
276.908	43.37
277.124	54.89
277.34	53.8
277.557	60.63
277.773	57.83
277.989	37.42
278.205	26.1
278.422	18.86
278.638	24.17
278.854	36.86
279.07	41.19
279.286	54.22
279.503	51.71
279.719	60.13
279.935	54.34
280.151	52.73
280.367	31.11
280.583	39.79
280.799	44.23
281.016	33.93
281.232	23.72
281.448	32.11
281.664	12.6
281.88	-8.33
282.096	2.17
282.312	4.05
282.528	10.44
282.744	16.66
282.96	22.66
283.176	30.48
283.392	47.51
283.608	50.75
283.824	46.22
284.04	20.22
284.256	21.84
284.471	23.19
284.687	20.96
284.903	19.87
285.119	37.11
285.335	36.4
285.551	10
285.767	15.3
285.982	9.78
286.198	13.2
286.414	0.9
286.63	30.17
286.846	18.88
287.061	13.11
287.277	13.44
287.493	15.55
287.709	6.12
287.924	27.38
288.14	56.49
288.356	70.72
288.571	84.97
288.787	80.2
289.003	79.29
289.218	77.06
289.434	55.46
289.65	42.68
289.865	26.98
290.081	12
290.296	-6.46
290.512	-2.99
290.727	8.73
290.943	20.15
291.159	39.83
291.374	55.62
291.59	45.2
291.805	36.62
292.021	39.2
292.236	48.4
292.451	42.08
292.667	49.39
292.882	46.89
293.098	50.29
293.313	54.67
293.529	66.05
293.744	50.7
293.959	49.47
294.175	48.87
294.39	31.89
294.605	24.27
294.821	26.31
295.036	19.93
295.251	12.72
295.467	27.74
295.682	-0.32
295.897	12.23
296.112	36.9
296.328	35.65
296.543	38.37
296.758	45.69
296.973	51.51
297.188	51.97
297.404	45.87
297.619	43.42
297.834	50.09
298.049	32.04
298.264	30.91
298.479	30.02
298.694	21.84
298.909	16.49
299.125	30.1
299.34	25.76
299.555	33.51
299.77	46.32
299.985	40.93
300.2	37.2
300.415	29.62
300.63	12.35
300.845	-3.66
301.06	10.5
301.275	18.87
301.49	15.18
301.704	14.19
301.919	9.26
302.134	9.94
302.349	18.75
302.564	19.8
302.779	18.13
302.994	17.02
303.209	23.13
303.423	-1.73
303.638	-5.04
303.853	7.76
304.068	29.06
304.283	22.78
304.497	23.03
304.712	30.59
304.927	29.17
305.142	21.62
305.356	14.38
305.571	22.83
305.786	26.98
306	27.99
306.215	41.34
306.43	56.53
306.644	62.56
306.859	67.75
307.074	63.69
307.288	57.72
307.503	42.9
307.717	32.14
307.932	15.42
308.147	35.96
308.361	27.09
308.576	28.02
308.79	38.67
309.005	53.05
309.219	23.33
309.434	24.6
309.648	27.32
309.863	19.52
310.077	19.32
310.292	12.24
310.506	3.99
310.72	7.19
310.935	17.78
311.149	-2.05
311.364	15.9
311.578	24.69
311.792	18.49
312.007	18.9
312.221	31.41
312.435	36.54
312.649	34.67
312.864	41.14
313.078	32.7
313.292	39.69
313.507	42.51
313.721	73.26
313.935	54.17
314.149	56.97
314.363	55.78
314.578	45.38
314.792	31.36
315.006	38.18
315.22	40.69
315.434	23.4
315.648	22.28
315.862	15.66
316.077	2.78
316.291	1.96
316.505	15.12
316.719	25.76
316.933	40.84
317.147	26.23
317.361	15.97
317.575	13.1
317.789	13.5
318.003	9.05
318.217	27.86
318.431	31
318.645	26.22
318.859	25.97
319.073	4.5
319.287	4.23
319.5	-8.84
319.714	-4.38
319.928	-1.76
320.142	0.9
320.356	23.32
320.57	44.34
320.784	44.71
320.997	58.36
321.211	68.73
321.425	52.46
321.639	30.57
321.853	20.03
322.066	13.28
322.28	-12.3
322.494	-5.57
322.707	12.62
322.921	25.25
323.135	14.78
323.349	17.65
323.562	19
323.776	14.98
323.989	1.48
324.203	7.93
324.417	21.11
324.63	27
324.844	25.32
325.057	24.22
325.271	22.96
325.485	26.2
325.698	18.22
325.912	22.92
326.125	29.23
326.339	36.73
326.552	33.34
326.766	41.7
326.979	34.41
327.193	32.44
327.406	25.51
327.619	27.96
327.833	19.38
328.046	30.3
328.26	23.46
328.473	22.32
328.686	25.92
328.9	31
329.113	17.26
329.326	28.58
329.54	23.53
329.753	10.06
329.966	7.11
330.179	7.98
330.393	14.3
330.606	0.56
330.819	21
331.032	22.72
331.246	45.86
331.459	48.93
331.672	60.63
331.885	65.12
332.098	66.32
332.311	49.41
332.525	52.26
332.738	35.54
332.951	31.48
333.164	16.66
333.377	10.38
333.59	4.9
333.803	24.67
334.016	26.49
334.229	27.23
334.442	45.78
334.655	53.89
334.868	55.81
335.081	56.38
335.294	72.61
335.507	76.34
335.72	71.59
335.933	52.17
336.146	46.62
336.359	30.6
336.572	20.76
336.785	13.85
336.997	31.36
337.21	32.56
337.423	39.26
337.636	25.5
337.849	19.55
338.062	16.07
338.274	20.87
338.487	30.45
338.7	31.16
338.913	32.84
339.125	26.57
339.338	3.51
339.551	-29.34
339.763	-25.87
339.976	-10.24
340.189	-8.86
340.402	2.54
340.614	5.45
340.827	17.57
341.039	-3.62
341.252	-4.74
341.465	-8.35
341.677	4.83
341.89	-8.62
342.102	19.7
342.315	28.16
342.527	25.38
342.74	31.29
342.952	18.14
343.165	28.96
343.377	22.52
343.59	17.8
343.802	12.01
344.015	16.31
344.227	0.85
344.44	-47.01
344.652	-13.11
344.864	9.58
345.077	21.79
345.289	16.22
345.502	27.75
345.714	16.77
345.926	13
346.139	6
346.351	7.63
346.563	5.93
346.775	8.4
346.988	1.95
347.2	-3.64
347.412	11.69
347.624	37.99
347.837	36.67
348.049	28.58
348.261	28.86
348.473	13.63
348.685	10
348.897	10.8
349.11	12.43
349.322	15.44
349.534	25.98
349.746	35.87
349.958	43.59
350.17	44.52
350.382	27.65
350.594	3.56
350.806	2.13
351.018	-13.14
351.23	-26.08
351.442	-3.74
351.654	37.41
351.866	26.77
352.078	26.41
352.29	26.95
352.502	9.19
352.714	-0.93
352.926	9.57
353.138	25.62
353.35	35.08
353.561	48.7
353.773	43.86
353.985	13.88
354.197	0.14
354.409	-0.18
354.621	-1.1
354.832	12.37
355.044	21.11
355.256	32.3
355.468	34.16
355.679	45.19
355.891	45.41
356.103	56.05
356.314	58.25
356.526	56.83
356.738	56.92
356.949	46.46
357.161	41.47
357.373	31.36
357.584	33.11
357.796	33.27
358.008	27.23
358.219	33.1
358.431	39.67
358.642	31.89
358.854	37.06
359.065	41.97
359.277	44.26
359.488	45.03
359.7	56.89
359.911	47.36
360.123	56.22
360.334	35.33
360.546	25.18
360.757	18.22
360.969	7.86
361.18	4.33
361.391	18.83
361.603	13.77
361.814	8.74
362.025	22.72
362.237	8.42
362.448	10.59
362.659	3.07
362.871	3.15
363.082	-4.39
363.293	-5.22
363.504	-21.18
363.716	-7.26
363.927	-9.67
364.138	-0.83
364.349	12.69
364.56	-0.63
364.772	6.4
364.983	15.67
365.194	11.74
365.405	6.77
365.616	20.77
365.827	23.64
366.038	29.67
366.25	27.62
366.461	42.6
366.672	51.16
366.883	40.38
367.094	36
367.305	35.51
367.516	28.86
367.727	33.86
367.938	46.37
368.149	29.54
368.36	29.97
368.571	25.54
368.781	19.71
368.992	11.95
369.203	15.96
369.414	22.33
369.625	32.44
369.836	37.65
370.047	32.71
370.258	36.55
370.468	37.48
370.679	28.33
370.89	16.14
371.101	21.6
371.312	22.61
371.522	14.3
371.733	15.52
371.944	20.57
372.155	24.37
372.365	15.9
372.576	17.91
372.787	23.88
372.997	32.54
373.208	21.62
373.419	31
373.629	35
373.84	33.87
374.05	26.78
374.261	23.04
374.472	29.17
374.682	24.71
374.893	25.24
375.103	24.3
375.314	38.55
375.524	33.64
375.735	32.81
375.945	28.88
376.156	29.33
376.366	28.24
376.577	22.55
376.787	28.58
376.997	31.67
377.208	36.32
377.418	28.56
377.629	29.29
377.839	33.58
378.049	25.41
378.26	22.84
378.47	30.45
378.68	32.53
378.89	24.65
379.101	27.56
379.311	21.11
379.521	22.18
379.732	22.28
379.942	28.94
380.152	31.72
380.362	43.49
380.572	30.4
380.783	24.05
380.993	16.04
381.203	6.3
381.413	-10.1
381.623	4.93
381.833	0.98
382.043	3.64
382.253	8.64
382.463	22.29
382.674	27.47
382.884	30.14
383.094	27.91
383.304	31.92
383.514	28.93
383.724	12.39
383.934	15.21
384.144	10.31
384.353	9.87
384.563	9.66
384.773	21.98
384.983	14.27
385.193	16.3
385.403	13.35
385.613	9.59
385.823	2.18
386.033	7.68
386.242	11.64
386.452	12.39
386.662	17.69
386.872	22.18
387.082	17.06
387.291	4.97
387.501	5.9
387.711	-1.23
387.921	-5.59
388.13	1.86
388.34	8.26
388.55	7.23
388.759	6.81
388.969	10.95
389.179	10.19
389.388	13.52
389.598	14.51
389.807	14.48
390.017	9.22
390.227	10
390.436	8.39
390.646	7.01
390.855	5.47
391.065	4.94
391.274	2.43
391.484	0.51
391.693	1.1
391.903	3.15
392.112	5.17
392.322	5.95
392.531	6.75
392.74	6.6
392.95	6.6
393.159	6.8
393.369	5.99
393.578	6.03
393.787	5.69
393.997	5.46
394.206	5.65
394.415	5.44
394.625	5.83
394.834	5.34
395.043	5.16
395.252	5.29
395.462	6.13
395.671	5.74
395.88	6.67
396.089	7.6
396.298	7.26
396.508	6.27
396.717	6.24
396.926	5.5
397.135	4.28
397.344	4.26
397.553	4.84
397.762	4.42
397.971	4.41
398.181	4.45
398.39	4.21
398.599	4.39
398.808	4.38
399.017	4.98
399.226	5.41
399.435	5.31
399.644	5.37
399.853	5.67
400.062	5.54
400.27	5.04
400.479	4.9
400.688	4.55
400.897	4.52
401.106	4.47
401.315	4.93
401.524	5.08
401.733	4.9
401.941	4.83
402.15	4.49
402.359	4.32
402.568	4.23
402.777	4.43
402.985	4.3
403.194	4.69
403.403	4.81
403.612	4.89
403.82	4.73
404.029	4.85
404.238	4.63
404.446	4.53
404.655	4.43
404.864	4.51
405.072	4.42
405.281	4.38
405.489	4.34
405.698	4.51
405.906	4.64
406.115	4.64
406.324	4.54
406.532	4.34
406.741	4.27
406.949	4.23
407.158	4.22
407.366	4.22
407.574	4.49
407.783	4.35
407.991	4.16
408.2	4.11
408.408	4.14
408.617	4.16
408.825	4.17
409.033	4.19
409.242	4.23
409.45	4.21
409.658	4.05
409.867	4.13
410.075	4.12
410.283	4.04
410.491	3.87
410.7	3.83
410.908	3.73
411.116	3.72
411.324	3.72
411.533	3.75
411.741	3.51
411.949	3.43
412.157	3.33
412.365	3.64
412.573	3.72
412.781	3.82
412.99	3.89
413.198	4.17
413.406	3.85
413.614	3.93
413.822	4
414.03	3.97
414.238	3.76
414.446	3.9
414.654	3.79
414.862	3.84
415.07	3.75
415.278	3.89
415.486	3.67
415.694	3.63
415.902	3.53
416.109	3.58
416.317	3.62
416.525	3.55
416.733	3.67
416.941	3.8
417.149	3.69
417.357	3.54
417.564	3.52
417.772	3.32
417.98	3.31
418.188	3.6
418.395	3.6
418.603	3.72
418.811	4.02
419.019	4
419.226	4.02
419.434	4.19
419.642	4.37
419.849	4.16
420.057	4.1
420.265	4.02
420.472	3.78
420.68	3.57
420.887	3.71
421.095	3.61
421.302	3.59
421.51	3.56
421.717	3.64
421.925	3.57
422.132	3.71
422.34	3.58
422.547	3.61
422.755	3.59
422.962	3.51
423.17	3.57
423.377	3.6
423.585	3.69
423.792	3.76
423.999	3.78
424.207	3.66
424.414	3.5
424.621	3.45
424.829	3.26
425.036	3.3
425.243	3.28
425.451	3.3
425.658	3.31
425.865	3.53
426.072	3.42
426.28	3.49
426.487	3.8
426.694	3.7
426.901	3.55
427.108	3.68
427.315	3.68
427.523	3.37
427.73	3.32
427.937	3.28
428.144	3.23
428.351	3.18
428.558	3.28
428.765	3.25
428.972	3.26
429.179	3.19
429.386	3.18
429.593	3.07
429.8	3.24
430.007	3.24
430.214	3.17
430.421	3.27
430.628	3.27
430.835	3.26
431.042	3.19
431.249	3.42
431.456	3.32
431.662	3.52
431.869	3.62
432.076	3.8
432.283	3.78
432.49	3.71
432.697	3.67
432.903	3.64
433.11	3.67
433.317	3.59
433.524	3.65
433.73	3.59
433.937	3.61
434.144	3.62
434.35	3.59
434.557	3.49
434.764	3.44
434.97	3.29
435.177	3.32
435.384	3.29
435.59	3.44
435.797	3.4
436.003	3.5
436.21	3.2
436.416	3.14
436.623	3.11
436.829	3.07
437.036	3.03
437.242	3.18
437.449	3.31
437.655	3.41
437.862	3.52
438.068	3.42
438.275	3.38
438.481	3.27
438.687	3.19
438.894	3.23
439.1	3.33
439.307	3.33
439.513	3.46
439.719	3.54
439.926	3.46
440.132	3.54
440.338	3.43
440.544	3.36
440.751	3.22
440.957	3.23
441.163	3.06
441.369	3.25
441.575	3.19
441.782	3.33
441.988	3.33
442.194	3.43
442.4	3.42
442.606	3.49
442.812	3.37
443.018	3.31
443.224	3.24
443.431	3.04
443.637	3.04
443.843	2.99
444.049	3.05
444.255	3.04
444.461	3.09
444.667	3.01
444.873	3.05
445.079	3.08
445.284	3.13
445.49	3.23
445.696	3.27
445.902	3.2
446.108	3.26
446.314	3.28
446.52	3.25
446.726	3.32
446.931	3.38
447.137	3.28
447.343	3.13
447.549	3.03
447.755	2.98
447.96	2.96
448.166	3.04
448.372	3.15
448.578	3.16
448.783	3.15
448.989	3.18
449.195	3.12
449.4	3.13
449.606	3.16
449.812	3.23
450.017	3.26
450.223	3.19
450.428	3.11
450.634	3.14
450.84	3.03
451.045	3.02
451.251	2.99
451.456	3.16
451.662	3.1
451.867	3.26
452.073	3.18
452.278	3.3
452.483	3.2
452.689	3.24
452.894	3.14
453.1	3.2
453.305	3.19
453.51	3.17
453.716	3.14
453.921	3.16
454.127	3.15
454.332	3.06
454.537	3.06
454.742	2.96
454.948	2.9
455.153	2.97
455.358	3.02
455.563	3.05
455.769	3.09
455.974	3.15
456.179	3.04
456.384	2.88
456.589	2.99
456.795	2.98
457	2.98
457.205	2.97
457.41	3.12
457.615	2.91
457.82	2.92
458.025	2.9
458.23	2.93
458.435	2.91
458.64	2.82
458.845	2.88
459.05	2.87
459.255	2.94
459.46	2.99
459.665	3.12
459.87	3.14
460.075	3.16
460.28	3.1
460.485	3.1
460.69	3.18
460.895	3.19
461.099	3.22
461.304	3.18
461.509	3.16
461.714	3.18
461.919	3.22
462.123	3.16
462.328	3.22
462.533	3.24
462.738	3.17
462.942	3.11
463.147	3.16
463.352	3.14
463.556	3.1
463.761	3.02
463.966	2.99
464.17	2.98
464.375	3.01
464.58	2.99
464.784	3.07
464.989	3.11
465.193	3.12
465.398	3.09
465.602	3.21
465.807	3.19
466.011	3.12
466.216	3.02
466.42	3.12
466.625	2.99
466.829	3.04
467.034	3.19
467.238	3.24
467.443	3.2
467.647	3.22
467.851	3.27
468.056	3.26
468.26	3.26
468.464	3.28
468.669	3.3
468.873	3.22
469.077	3.15
469.282	3.13
469.486	3.04
