Data from Ofav_PP_Phys_313_Reflection_3.txt Node
Date: Tue Jul 27 19:06:29 EDT 2021
User: USUARIO
Spectrometer: FLMT01687
Trigger mode: 0
Integration Time (sec): 8.500000E-1
Scans to average: 2
Electric dark correction enabled: true
Nonlinearity correction enabled: false
Boxcar width: 2
XAxis mode: Wavelengths
Number of Pixels in Spectrum: 3648
>>>>>Begin Spectral Data<<<<<
179.494	-1808.15
179.716	-581.99
179.937	-418.73
180.158	-360.93
180.38	-353.48
180.601	-311.86
180.823	114.45
181.044	79.94
181.265	57.77
181.486	89.03
181.708	38.16
181.929	59.97
182.15	64.03
182.372	66.15
182.593	59.63
182.814	89.8
183.035	90.22
183.257	64.24
183.478	48.3
183.699	32.06
183.92	44.54
184.141	28.83
184.363	47.49
184.584	59.88
184.805	80.28
185.026	78.51
185.247	95.29
185.468	75.97
185.689	55.27
185.91	34.84
186.132	-5.4
186.353	3.71
186.574	-14.64
186.795	-7.21
187.016	-1.87
187.237	-5.67
187.458	2.51
187.679	40
187.9	17.52
188.121	29.92
188.342	33
188.563	24.45
188.784	29.17
189.005	36.1
189.226	36.56
189.447	27.47
189.667	35.86
189.888	8.98
190.109	27.53
190.33	38.22
190.551	50.77
190.772	29.74
190.993	47.2
191.214	41.2
191.434	38.41
191.655	44.97
191.876	47.82
192.097	45.13
192.318	52.75
192.538	60.56
192.759	46.87
192.98	32.07
193.201	33.79
193.421	24.15
193.642	-12.55
193.863	10.13
194.083	32
194.304	25.96
194.525	-0.95
194.745	1.33
194.966	-58.71
195.187	-90.11
195.407	-55.94
195.628	-10.43
195.848	29.75
196.069	66.1
196.29	81.95
196.51	73.23
196.731	60.45
196.951	44.75
197.172	9.96
197.392	47.62
197.613	68.15
197.833	54.54
198.054	68.94
198.274	55.9
198.495	59.27
198.715	41.21
198.936	33.66
199.156	55.14
199.377	87.57
199.597	73.46
199.817	58.62
200.038	38.62
200.258	7.08
200.479	18.08
200.699	9.6
200.919	2.51
201.14	21.55
201.36	9.44
201.58	15.74
201.801	10.72
202.021	13.78
202.241	24.46
202.461	30.23
202.682	8.33
202.902	-5.25
203.122	22.25
203.342	14.17
203.563	25.61
203.783	28.75
204.003	34.52
204.223	15.66
204.443	8.14
204.663	-42.46
204.884	-19.65
205.104	-8.79
205.324	5.94
205.544	-0.02
205.764	-8.52
205.984	-7.13
206.204	-20.35
206.424	-43.65
206.644	3.67
206.864	44.34
207.084	19.41
207.304	25.5
207.525	26.38
207.745	38.46
207.964	25.77
208.184	46.11
208.404	32.7
208.624	33.97
208.844	18.97
209.064	25.61
209.284	14.58
209.504	22.41
209.724	12.71
209.944	-6.81
210.164	11.9
210.384	98.34
210.604	78.76
210.823	86.52
211.043	76.15
211.263	65.94
211.483	75.78
211.703	66.76
211.922	54.36
212.142	58.98
212.362	31.43
212.582	-25.08
212.801	2.13
213.021	-26.76
213.241	-37.53
213.461	-54.24
213.68	-14.13
213.9	-7.39
214.12	17.93
214.339	34.34
214.559	49.21
214.779	54.29
214.998	29.53
215.218	22.78
215.438	25.8
215.657	24.17
215.877	13.94
216.096	15.67
216.316	14.06
216.535	8.72
216.755	23.88
216.974	38.36
217.194	61
217.413	58.3
217.633	52.2
217.852	26.66
218.072	13.11
218.291	-9.49
218.511	-2.42
218.73	10.71
218.95	10.26
219.169	20.05
219.389	28.45
219.608	26.1
219.827	52.08
220.047	35.78
220.266	40.77
220.485	31.25
220.705	34
220.924	2.11
221.143	6.23
221.363	-26.66
221.582	-11.46
221.801	-35.3
222.021	4.09
222.24	12.15
222.459	6.75
222.678	2.11
222.897	28.91
223.117	22.52
223.336	3.09
223.555	15.93
223.774	9.83
223.993	4.62
224.213	-20.01
224.432	-21.68
224.651	2.22
224.87	-10.46
225.089	-8.73
225.308	-11.07
225.527	16.91
225.746	-16.64
225.965	8.22
226.184	-2.58
226.404	5.58
226.623	-12.72
226.842	-3.62
227.061	-13.01
227.28	0.19
227.499	20.82
227.718	12.09
227.936	21.8
228.155	25.2
228.374	32.61
228.593	24.1
228.812	33.8
229.031	34.82
229.25	35.3
229.469	12.53
229.688	6.01
229.907	-22.23
230.125	-12.21
230.344	7.75
230.563	26.21
230.782	37.45
231.001	39.47
231.22	29.91
231.438	9.42
231.657	-4
231.876	-13.21
232.095	4.02
232.313	18.16
232.532	32.82
232.751	43.94
232.969	39.29
233.188	44.32
233.407	45.39
233.625	50.17
233.844	37.17
234.063	52.1
234.281	44.26
234.5	18.43
234.719	41.77
234.937	21.43
235.156	11.11
235.374	8.65
235.593	27.38
235.811	-10.87
236.03	7.6
236.249	-0.85
236.467	2.75
236.686	-1.02
236.904	17.43
237.123	28.55
237.341	34.04
237.559	24.61
237.778	32.86
237.996	26.57
238.215	6
238.433	8.93
238.652	15.92
238.87	23.31
239.088	4.6
239.307	37.01
239.525	34.76
239.743	18.37
239.962	2.58
240.18	20.83
240.398	-0.86
240.617	8.06
240.835	21.57
241.053	33.75
241.271	20.75
241.49	33.88
241.708	40
241.926	29.18
242.144	4.75
242.363	1.2
242.581	-3.47
242.799	-16.06
243.017	-39.43
243.235	-42.94
243.453	-25.27
243.672	6.39
243.89	11.13
244.108	13.83
244.326	20.79
244.544	9.92
244.762	-1.36
244.98	15.69
245.198	3.08
245.416	0.62
245.634	14.14
245.852	25.97
246.07	21.47
246.288	40
246.506	49.52
246.724	48.27
246.942	22.95
247.16	8.7
247.378	18.75
247.596	17.75
247.814	16.88
248.032	34.77
248.25	40.36
248.468	50.27
248.685	43.88
248.903	37.98
249.121	36.18
249.339	36.82
249.557	27.29
249.775	3.75
249.992	11.39
250.21	3.74
250.428	4.26
250.646	-15.89
250.863	23.12
251.081	29.99
251.299	41.42
251.517	42.91
251.734	67.29
251.952	44.13
252.17	56.43
252.387	34.36
252.605	37.1
252.823	39.97
253.04	59.71
253.258	52.14
253.475	52.59
253.693	43.85
253.911	52.16
254.128	32.79
254.346	25.98
254.563	32.91
254.781	35.16
254.998	24.32
255.216	10.97
255.433	26.45
255.651	40.38
255.868	40.38
256.086	19.41
256.303	33.36
256.521	40.33
256.738	28.73
256.956	21.41
257.173	34.74
257.39	34.22
257.608	13.02
257.825	12.11
258.043	30.3
258.26	33.07
258.477	29.1
258.695	34.46
258.912	47
259.129	50.59
259.346	42.55
259.564	41.83
259.781	67.35
259.998	71.78
260.216	52.46
260.433	51.04
260.65	59.56
260.867	39.27
261.084	17.23
261.302	3.97
261.519	7.87
261.736	5.17
261.953	9.49
262.17	11.81
262.387	18.44
262.604	25.13
262.822	14.1
263.039	6.86
263.256	9
263.473	18.44
263.69	12.04
263.907	-0.84
264.124	14.71
264.341	24.77
264.558	26.71
264.775	24.05
264.992	46.02
265.209	39.85
265.426	35.99
265.643	34.41
265.86	32.96
266.077	13.97
266.294	21.61
266.51	38.26
266.727	36.39
266.944	42.97
267.161	46.99
267.378	43.63
267.595	44.58
267.812	46.42
268.028	46.41
268.245	48.67
268.462	66.68
268.679	40.97
268.896	43.23
269.112	32.01
269.329	43.1
269.546	30.9
269.763	18.49
269.979	3.67
270.196	12.73
270.413	20.35
270.629	27.03
270.846	59.31
271.063	56.7
271.279	40
271.496	18.12
271.712	-14.08
271.929	-51.89
272.146	-78.64
272.362	-33.26
272.579	-24
272.795	20.48
273.012	22.33
273.228	26.26
273.445	30.94
273.661	43.26
273.878	22.53
274.094	18.1
274.311	26.46
274.527	11.03
274.744	4.52
274.96	2.03
275.177	-4.71
275.393	-1.47
275.609	25.53
275.826	20.85
276.042	23.07
276.259	46.77
276.475	44.52
276.691	38.65
276.908	37.28
277.124	36.25
277.34	42.24
277.557	30.81
277.773	28.27
277.989	37.58
278.205	42.15
278.422	35.34
278.638	35.25
278.854	54.93
279.07	54.21
279.286	36.69
279.503	26.39
279.719	40.3
279.935	33.53
280.151	42.06
280.367	53.07
280.583	59.27
280.799	61.13
281.016	44.18
281.232	29.28
281.448	16.54
281.664	7.68
281.88	-9.18
282.096	-3.86
282.312	-5.86
282.528	-1.58
282.744	-16.93
282.96	-28.29
283.176	-15.17
283.392	0.86
283.608	-2.12
283.824	27.41
284.04	16.78
284.256	19.24
284.471	20.64
284.687	35.74
284.903	35.99
285.119	54.92
285.335	53.23
285.551	33.53
285.767	38.37
285.982	26.15
286.198	26.08
286.414	3.35
286.63	9.7
286.846	3.32
287.061	-0.93
287.277	-8.06
287.493	14.45
287.709	22.06
287.924	18.66
288.14	38.36
288.356	64.73
288.571	64.29
288.787	65.33
289.003	62.42
289.218	59.18
289.434	34.19
289.65	19.37
289.865	-11.59
290.081	1.64
290.296	-10.37
290.512	-13.76
290.727	-4.61
290.943	13.9
291.159	25.15
291.374	41.8
291.59	36.09
291.805	30.85
292.021	24.86
292.236	16.89
292.451	20.56
292.667	28.47
292.882	22.29
293.098	23.88
293.313	29.04
293.529	36.69
293.744	32.86
293.959	41.4
294.175	40.04
294.39	33.46
294.605	27.33
294.821	31.53
295.036	28.62
295.251	32.31
295.467	19.01
295.682	-7.58
295.897	4.14
296.112	-3.06
296.328	-6.16
296.543	7.09
296.758	27.31
296.973	21.84
297.188	31.69
297.404	24.44
297.619	30.43
297.834	24.04
298.049	19.57
298.264	24.87
298.479	29.41
298.694	18.14
298.909	16.13
299.125	15.3
299.34	-3.98
299.555	6.09
299.77	7.9
299.985	18.31
300.2	18.68
300.415	36.56
300.63	24.93
300.845	39.35
301.06	25.99
301.275	19.56
301.49	23.44
301.704	10.06
301.919	11.47
302.134	25.86
302.349	37.93
302.564	26.83
302.779	26.2
302.994	22
303.209	24.78
303.423	5.4
303.638	-13.83
303.853	1.63
304.068	19.14
304.283	4.58
304.497	10.44
304.712	38.13
304.927	38.23
305.142	18.59
305.356	25.98
305.571	21.57
305.786	10.4
306	12.75
306.215	22.13
306.43	22.58
306.644	40.19
306.859	35.01
307.074	49.9
307.288	50.18
307.503	46.63
307.717	31.35
307.932	26.21
308.147	26.73
308.361	21.3
308.576	9.24
308.79	24.19
309.005	21.31
309.219	8.32
309.434	8.57
309.648	8.3
309.863	-12.41
310.077	-1.15
310.292	3.95
310.506	-16.24
310.72	0.69
310.935	3.36
311.149	7.58
311.364	-1.73
311.578	25.76
311.792	10.6
312.007	23.79
312.221	32.61
312.435	27.22
312.649	31.76
312.864	16.08
313.078	7.4
313.292	-8.66
313.507	24.14
313.721	41.98
313.935	45.61
314.149	47.2
314.363	37.89
314.578	32.2
314.792	17.02
315.006	36.65
315.22	33.89
315.434	35.96
315.648	27.99
315.862	21.34
316.077	11.42
316.291	4.56
316.505	5.74
316.719	19.13
316.933	38.18
317.147	25.7
317.361	23.38
317.575	22.64
317.789	15.77
318.003	-3.4
318.217	-7.12
318.431	3.24
318.645	12.68
318.859	20.21
319.073	13.74
319.287	9.35
319.5	0.34
319.714	-2.53
319.928	-5.86
320.142	-11.14
320.356	20.21
320.57	36.35
320.784	36.04
320.997	47.3
321.211	58.27
321.425	40.42
321.639	18.62
321.853	16.86
322.066	10.68
322.28	-5.35
322.494	11.35
322.707	22.58
322.921	19.34
323.135	16.48
323.349	34.03
323.562	26.2
323.776	19.77
323.989	3.14
324.203	5.95
324.417	-26.15
324.63	8.94
324.844	19.72
325.057	26.78
325.271	8.4
325.485	23.99
325.698	11.49
325.912	4.68
326.125	24.81
326.339	38.82
326.552	42.66
326.766	43.45
326.979	42.1
327.193	36.17
327.406	27.42
327.619	24.55
327.833	30.64
328.046	28.07
328.26	24.6
328.473	10.26
328.686	3.53
328.9	-9.96
329.113	-15.93
329.326	-24.65
329.54	14.12
329.753	14.06
329.966	27.28
330.179	50.53
330.393	50.46
330.606	24.58
330.819	41.35
331.032	21.84
331.246	42.56
331.459	30.6
331.672	32.65
331.885	25.66
332.098	54.02
332.311	31.66
332.525	38.62
332.738	39.04
332.951	31.24
333.164	19.38
333.377	26.32
333.59	22.78
333.803	26.88
334.016	23.74
334.229	11.25
334.442	18.53
334.655	27.5
334.868	32.93
335.081	36.84
335.294	51.54
335.507	43.04
335.72	37.36
335.933	13.77
336.146	13.83
336.359	-4.62
336.572	-3.98
336.785	-10.1
336.997	14.18
337.21	23.55
337.423	43.67
337.636	29.87
337.849	17.66
338.062	1.61
338.274	13.61
338.487	18.94
338.7	23.38
338.913	24.64
339.125	39.12
339.338	21.9
339.551	6.36
339.763	13.89
339.976	22.38
340.189	10.87
340.402	16.6
340.614	17.4
340.827	15.31
341.039	2.93
341.252	-5.95
341.465	-26.02
341.677	-12.62
341.89	-20.43
342.102	6
342.315	19.29
342.527	28.92
342.74	30.8
342.952	25.15
343.165	37.19
343.377	29.26
343.59	18.55
343.802	12.53
344.015	20.51
344.227	2.09
344.44	-32.12
344.652	-2.44
344.864	-10.97
345.077	2.18
345.289	-7.44
345.502	4.25
345.714	-0.69
345.926	1.31
346.139	0.55
346.351	11.95
346.563	10.78
346.775	5.65
346.988	4.97
347.2	0.97
347.412	3.56
347.624	21.44
347.837	25.75
348.049	20.7
348.261	14.51
348.473	12.46
348.685	12.67
348.897	19.29
349.11	24.26
349.322	16.59
349.534	18.79
349.746	22.25
349.958	13.63
350.17	13.07
350.382	9.89
350.594	-7.51
350.806	-4.67
351.018	-0.32
351.23	2.54
351.442	14.45
351.654	44.04
351.866	28.94
352.078	26.72
352.29	12.31
352.502	10.58
352.714	6.64
352.926	12.45
353.138	21.79
353.35	38.6
353.561	36.76
353.773	34.36
353.985	23.52
354.197	5.17
354.409	-3.7
354.621	3.23
354.832	-1.08
355.044	5.3
355.256	22.36
355.468	20.25
355.679	30.91
355.891	39.14
356.103	44.71
356.314	37.28
356.526	41.94
356.738	27.08
356.949	22.66
357.161	21.3
357.373	17.72
357.584	22.65
357.796	39.85
358.008	43.52
358.219	44.07
358.431	44.27
358.642	41.46
358.854	33.06
359.065	28.42
359.277	28.88
359.488	41.8
359.7	32.76
359.911	37.38
360.123	38.83
360.334	35.81
360.546	16.74
360.757	22.33
360.969	15.92
361.18	19.14
361.391	28.21
361.603	29.93
361.814	31.44
362.025	32.11
362.237	27.29
362.448	10.6
362.659	1.79
362.871	3.29
363.082	1.05
363.293	-3
363.504	2.3
363.716	10.84
363.927	-6
364.138	-8.56
364.349	4.13
364.56	-3.64
364.772	3.84
364.983	15.56
365.194	14.74
365.405	25.8
365.616	25.07
365.827	29.8
366.038	41.07
366.25	40.38
366.461	33.47
366.672	34.36
366.883	24.41
367.094	18.97
367.305	20.78
367.516	14.51
367.727	38.96
367.938	25.8
368.149	13.99
368.36	-0.02
368.571	-6.83
368.781	-15.69
368.992	-4.36
369.203	-1.19
369.414	15.4
369.625	28.13
369.836	24.74
370.047	24.71
370.258	28.37
370.468	26.58
370.679	23.49
370.89	17.58
371.101	20.61
371.312	29.27
371.522	15.32
371.733	26.85
371.944	34.11
372.155	37.63
372.365	19.72
372.576	34.84
372.787	30.93
372.997	29.64
373.208	21.73
373.419	30.27
373.629	30.19
373.84	24.39
374.05	21.94
374.261	13.97
374.472	13.93
374.682	-0.01
374.893	13.44
375.103	15.16
375.314	28.58
375.524	34.29
375.735	41.76
375.945	41.07
376.156	44.73
376.366	42.14
376.577	33.38
376.787	36.32
376.997	35.93
377.208	38.95
377.418	38.1
377.629	42.1
377.839	46.44
378.049	42.19
378.26	38.13
378.47	36.77
378.68	42.25
378.89	31.01
379.101	25.39
379.311	12.47
379.521	5.87
379.732	-1.47
379.942	14.96
380.152	13.16
380.362	23.14
380.572	27.25
380.783	27.02
380.993	14.4
381.203	19.03
381.413	14.47
381.623	20.47
381.833	22.85
382.043	26.35
382.253	22.8
382.463	20.33
382.674	11.09
382.884	-1.58
383.094	-11.08
383.304	-6.5
383.514	-3.34
383.724	-7.64
383.934	-6.15
384.144	-6.81
384.353	-3.28
384.563	1.65
384.773	12.9
384.983	16.58
385.193	18.58
385.403	18.23
385.613	19.97
385.823	10.66
386.033	9.41
386.242	18.25
386.452	13.94
386.662	14.1
386.872	19.47
387.082	21
387.291	9.32
387.501	11.55
387.711	6.96
387.921	8.88
388.13	9.27
388.34	13.08
388.55	12.52
388.759	10.91
388.969	9.22
389.179	10.79
389.388	11.89
389.598	11.03
389.807	11.76
390.017	8.9
390.227	9.57
390.436	11.23
390.646	11.97
390.855	9.01
391.065	8.63
391.274	5.41
391.484	1.44
391.693	0.18
391.903	2.14
392.112	3.17
392.322	2.83
392.531	3.92
392.74	3.5
392.95	4.35
393.159	4.05
393.369	4.86
393.578	6.19
393.787	6.03
393.997	5.78
394.206	6.34
394.415	6.28
394.625	4.16
394.834	3.88
395.043	3.81
395.252	4.06
395.462	4.4
395.671	4.31
395.88	5.81
396.089	5.56
396.298	5.43
396.508	5.36
396.717	6.35
396.926	5.39
397.135	4.97
397.344	4.79
397.553	4.61
397.762	4.26
397.971	4.54
398.181	4.95
398.39	4.34
398.599	4.61
398.808	4.73
399.017	5.1
399.226	5.03
399.435	5.24
399.644	5.34
399.853	5.5
400.062	5.47
400.27	5.22
400.479	4.93
400.688	4.74
400.897	4.6
401.106	4.37
401.315	4.78
401.524	5.25
401.733	5.17
401.941	5.15
402.15	5.17
402.359	4.9
402.568	4.75
402.777	4.53
402.985	4.38
403.194	4.48
403.403	4.61
403.612	4.39
403.82	4.46
404.029	4.62
404.238	4.52
404.446	4.55
404.655	4.71
404.864	4.68
405.072	4.67
405.281	4.64
405.489	4.51
405.698	4.48
405.906	4.59
406.115	4.42
406.324	4.27
406.532	4.21
406.741	4.23
406.949	4.34
407.158	4.37
407.366	4.37
407.574	4.49
407.783	4.48
407.991	4.35
408.2	4.41
408.408	4.58
408.617	4.48
408.825	4.44
409.033	4.42
409.242	4.29
409.45	4.19
409.658	4.17
409.867	4.19
410.075	4.04
410.283	4.07
410.491	4.11
410.7	4.11
410.908	3.99
411.116	4.19
411.324	4.23
411.533	4.14
411.741	3.95
411.949	3.89
412.157	3.82
412.365	3.91
412.573	3.81
412.781	3.91
412.99	4.02
413.198	4.12
413.406	4.01
413.614	4.13
413.822	4.23
414.03	4.17
414.238	4.02
414.446	4.04
414.654	4.06
414.862	4
415.07	4.06
415.278	4.11
415.486	3.99
415.694	3.83
415.902	3.85
416.109	3.94
416.317	3.93
416.525	3.88
416.733	3.89
416.941	3.92
417.149	3.8
417.357	3.84
417.564	3.84
417.772	3.92
417.98	3.92
418.188	4.11
418.395	3.97
418.603	4.03
418.811	4.08
419.019	3.97
419.226	3.89
419.434	4.03
419.642	4.14
419.849	4.04
420.057	4.1
420.265	4.13
420.472	3.79
420.68	3.65
420.887	3.75
421.095	3.67
421.302	3.51
421.51	3.64
421.717	3.61
421.925	3.54
422.132	3.38
422.34	3.24
422.547	3.25
422.755	3.52
422.962	3.46
423.17	3.8
423.377	3.77
423.585	3.97
423.792	3.88
423.999	3.82
424.207	3.65
424.414	3.64
424.621	3.47
424.829	3.43
425.036	3.41
425.243	3.34
425.451	3.42
425.658	3.33
425.865	3.3
426.072	3.35
426.28	3.41
426.487	3.62
426.694	3.65
426.901	3.64
427.108	3.55
427.315	3.51
427.523	3.32
427.73	3.15
427.937	3.13
428.144	3.19
428.351	3.15
428.558	3.27
428.765	3.5
428.972	3.54
429.179	3.49
429.386	3.6
429.593	3.45
429.8	3.43
430.007	3.32
430.214	3.39
430.421	3.39
430.628	3.58
430.835	3.6
431.042	3.55
431.249	3.58
431.456	3.57
431.662	3.52
431.869	3.42
432.076	3.46
432.283	3.35
432.49	3.29
432.697	3.28
432.903	3.51
433.11	3.73
433.317	3.71
433.524	3.71
433.73	3.69
433.937	3.53
434.144	3.36
434.35	3.41
434.557	3.45
434.764	3.32
434.97	3.27
435.177	3.29
435.384	3.14
435.59	3.12
435.797	3.17
436.003	3.26
436.21	3.2
436.416	3.3
436.623	3.26
436.829	3.21
437.036	3.21
437.242	3.25
437.449	3.22
437.655	3.32
437.862	3.4
438.068	3.24
438.275	3.26
438.481	3.32
438.687	3.3
438.894	3.37
439.1	3.52
439.307	3.46
439.513	3.46
439.719	3.45
439.926	3.44
440.132	3.55
440.338	3.52
440.544	3.46
440.751	3.37
440.957	3.37
441.163	3.12
441.369	3.15
441.575	3.26
441.782	3.31
441.988	3.25
442.194	3.39
442.4	3.44
442.606	3.53
442.812	3.65
443.018	3.53
443.224	3.49
443.431	3.38
443.637	3.34
443.843	3.21
444.049	3.42
444.255	3.42
444.461	3.37
444.667	3.23
444.873	3.26
445.079	3.26
445.284	3.32
445.49	3.36
445.696	3.45
445.902	3.54
446.108	3.42
446.314	3.26
446.52	3.35
446.726	3.37
446.931	3.36
447.137	3.4
447.343	3.42
447.549	3.37
447.755	3.25
447.96	3.15
448.166	3.02
448.372	3.11
448.578	3.17
448.783	3.3
448.989	3.38
449.195	3.4
449.4	3.38
449.606	3.32
449.812	3.28
450.017	3.24
450.223	3.29
450.428	3.28
450.634	3.3
450.84	3.28
451.045	3.3
451.251	3.36
451.456	3.41
451.662	3.36
451.867	3.46
452.073	3.39
452.278	3.32
452.483	3.25
452.689	3.31
452.894	3.32
453.1	3.36
453.305	3.4
453.51	3.44
453.716	3.29
453.921	3.22
454.127	3.26
454.332	3.22
454.537	3.27
454.742	3.31
454.948	3.27
455.153	3.23
455.358	3.23
455.563	3.17
455.769	3.18
455.974	3.21
456.179	3.18
456.384	3.02
456.589	3.06
456.795	3.05
457	2.96
457.205	2.86
457.41	3.02
457.615	2.96
457.82	2.92
458.025	2.96
458.23	3.08
458.435	3.11
458.64	3.09
458.845	3.18
459.05	3.16
459.255	3.19
459.46	3.13
459.665	3.21
459.87	3.27
460.075	3.35
460.28	3.45
460.485	3.5
460.69	3.43
460.895	3.41
461.099	3.34
461.304	3.2
461.509	3.18
461.714	3.25
461.919	3.21
462.123	3.3
462.328	3.31
462.533	3.33
462.738	3.26
462.942	3.28
463.147	3.2
463.352	3.13
463.556	3.08
463.761	3.07
463.966	3
464.17	3.11
464.375	3.15
464.58	3.2
464.784	3.23
464.989	3.35
465.193	3.3
465.398	3.43
465.602	3.5
465.807	3.44
466.011	3.36
466.216	3.24
466.42	3.22
466.625	3.11
466.829	3.21
467.034	3.3
467.238	3.45
467.443	3.4
467.647	3.44
467.851	3.43
468.056	3.33
468.26	3.23
468.464	3.25
468.669	3.19
468.873	3.16
469.077	3.17
469.282	3.12
