Data from Ofav_PP_Phys_9IR44_Reflection_3.txt Node
Date: Tue Jul 27 19:05:52 EDT 2021
User: USUARIO
Spectrometer: FLMT01687
Trigger mode: 0
Integration Time (sec): 8.500000E-1
Scans to average: 2
Electric dark correction enabled: true
Nonlinearity correction enabled: false
Boxcar width: 2
XAxis mode: Wavelengths
Number of Pixels in Spectrum: 3648
>>>>>Begin Spectral Data<<<<<
179.494	-1274.07
179.716	-431.72
179.937	-315.13
180.158	-287.8
180.38	-325.93
180.601	-335.47
180.823	144.05
181.044	94.18
181.265	51.52
181.486	43.9
181.708	12.97
181.929	106.54
182.15	143.88
182.372	87.74
182.593	63.4
182.814	55.96
183.035	63.18
183.257	53.03
183.478	55.83
183.699	48.62
183.92	78.15
184.141	58.98
184.363	55.74
184.584	71.54
184.805	93.33
185.026	69.16
185.247	82.71
185.468	55.3
185.689	15.9
185.91	-15.28
186.132	-14.9
186.353	-4.78
186.574	-9.15
186.795	9.58
187.016	15.35
187.237	4.01
187.458	2.87
187.679	20.21
187.9	-2.12
188.121	0.73
188.342	1.26
188.563	-5.25
188.784	38.92
189.005	66.86
189.226	67.96
189.447	45.74
189.667	65.42
189.888	54.23
190.109	59.5
190.33	45.62
190.551	33.86
190.772	7.34
190.993	1.84
191.214	-9.94
191.434	-15.12
191.655	9.04
191.876	6.09
192.097	11.58
192.318	21.69
192.538	30.92
192.759	36.44
192.98	39.75
193.201	34.66
193.421	39.59
193.642	46.68
193.863	22.63
194.083	18.84
194.304	18.51
194.525	10.56
194.745	-28.07
194.966	-9.16
195.187	-12.15
195.407	37.14
195.628	42.18
195.848	78.85
196.069	100.03
196.29	128.86
196.51	87.5
196.731	72.38
196.951	54.95
197.172	32.59
197.392	47.47
197.613	27.48
197.833	39.58
198.054	37.81
198.274	28.82
198.495	30.09
198.715	32.63
198.936	-2.58
199.156	33.31
199.377	63.76
199.597	11.84
199.817	-1.93
200.038	-46.16
200.258	-81.82
200.479	-58.9
200.699	-22.91
200.919	-6.82
201.14	-4.15
201.36	-25.51
201.58	-5.76
201.801	-14.41
202.021	-4.82
202.241	15.23
202.461	17.65
202.682	-24.42
202.902	-46.59
203.122	4.56
203.342	-6.41
203.563	24.91
203.783	42.08
204.003	47.8
204.223	15.55
204.443	16.85
204.663	-7.2
204.884	-1.71
205.104	-13.69
205.324	8.67
205.544	24.9
205.764	28.29
205.984	18.29
206.204	43.8
206.424	42.99
206.644	33.07
206.864	31.98
207.084	46.34
207.304	40.08
207.525	28.26
207.745	33.58
207.964	37.05
208.184	26.68
208.404	24.8
208.624	39.35
208.844	32.64
209.064	29.24
209.284	16.72
209.504	32.73
209.724	10.89
209.944	-57
210.164	-40.52
210.384	8.79
210.604	-12.26
210.823	30.84
211.043	49.84
211.263	24.29
211.483	14.23
211.703	3.07
211.922	-15.45
212.142	-10.28
212.362	1.61
212.582	0.1
212.801	24.09
213.021	11.51
213.241	-4.37
213.461	-6.2
213.68	14.88
213.9	-5.02
214.12	-3.13
214.339	25.9
214.559	25.9
214.779	26.09
214.998	9.39
215.218	23.25
215.438	28.25
215.657	23.9
215.877	18.39
216.096	33
216.316	47.45
216.535	28.65
216.755	51.13
216.974	58.65
217.194	64.03
217.413	31.29
217.633	29.53
217.852	17.55
218.072	1.57
218.291	-13.86
218.511	0.43
218.73	6.11
218.95	10.69
219.169	15.06
219.389	8.06
219.608	11.58
219.827	25.15
220.047	12.94
220.266	41.81
220.485	56.44
220.705	53
220.924	40.95
221.143	37.7
221.363	9.87
221.582	-5.45
221.801	-2.5
222.021	21.3
222.24	38.13
222.459	21.58
222.678	27.72
222.897	28.59
223.117	22.61
223.336	-6.13
223.555	18.98
223.774	8.59
223.993	-2.96
224.213	-20.14
224.432	-24.05
224.651	11.22
224.87	17.13
225.089	10.51
225.308	11.89
225.527	31.7
225.746	-1.61
225.965	13.65
226.184	7.76
226.404	16.66
226.623	9.67
226.842	33.92
227.061	22.7
227.28	50.76
227.499	48.56
227.718	37.94
227.936	31.03
228.155	28.65
228.374	38.15
228.593	35.48
228.812	36.98
229.031	42.46
229.25	59.82
229.469	38.48
229.688	39.44
229.907	0.72
230.125	1.28
230.344	6.33
230.563	25.46
230.782	34.65
231.001	57.13
231.22	60.03
231.438	45.09
231.657	38.16
231.876	33.14
232.095	51.48
232.313	56.36
232.532	57.53
232.751	51.05
232.969	46.48
233.188	26.79
233.407	3.47
233.625	16.73
233.844	20.56
234.063	36.43
234.281	42.87
234.5	46.72
234.719	58.55
234.937	41.09
235.156	11.83
235.374	0.67
235.593	6.59
235.811	-8.87
236.03	9.31
236.249	17.74
236.467	31.82
236.686	27.65
236.904	33.37
237.123	23.69
237.341	22.46
237.559	27.65
237.778	21.61
237.996	16.77
238.215	33.72
238.433	44.75
238.652	24.39
238.87	38.22
239.088	27.72
239.307	19.1
239.525	-8.88
239.743	-7.6
239.962	-18.82
240.18	-6.21
240.398	-13.69
240.617	-3.89
240.835	11.49
241.053	15.11
241.271	18.68
241.49	23.47
241.708	30.51
241.926	22.08
242.144	14.9
242.363	15.51
242.581	26.73
242.799	18.58
243.017	8.39
243.235	15.4
243.453	20.24
243.672	27.19
243.89	17.59
244.108	25.48
244.326	32.9
244.544	20.88
244.762	14.36
244.98	37.03
245.198	30.03
245.416	23.61
245.634	25.22
245.852	35.19
246.07	19.82
246.288	32.89
246.506	27.6
246.724	31.42
246.942	26.86
247.16	32.68
247.378	33.58
247.596	41.15
247.814	35.67
248.032	35.24
248.25	29.76
248.468	19.11
248.685	3.69
248.903	-2.11
249.121	-17.03
249.339	-23.19
249.557	2.43
249.775	-2.27
249.992	9.8
250.21	15.54
250.428	16.46
250.646	6.92
250.863	17.7
251.081	27.49
251.299	38.68
251.517	33.08
251.734	44.04
251.952	29.96
252.17	25.51
252.387	9.66
252.605	14.59
252.823	19.51
253.04	46.57
253.258	51.62
253.475	50.1
253.693	57.06
253.911	57.9
254.128	38.36
254.346	32.96
254.563	35.69
254.781	23.45
254.998	19.38
255.216	7.33
255.433	17.37
255.651	10.21
255.868	11.9
256.086	14.72
256.303	15.36
256.521	21.1
256.738	31.1
256.956	34.35
257.173	33.24
257.39	48.55
257.608	42.42
257.825	40.84
258.043	39.96
258.26	42.51
258.477	32.74
258.695	29.93
258.912	29.27
259.129	21.59
259.346	16.32
259.564	5.5
259.781	39.36
259.998	35.76
260.216	46.82
260.433	48.43
260.65	57.56
260.867	33.79
261.084	48.82
261.302	43.74
261.519	27.11
261.736	17.27
261.953	15.69
262.17	3.27
262.387	8.24
262.604	24.71
262.822	37.42
263.039	40.68
263.256	46.1
263.473	55.23
263.69	58.93
263.907	35.59
264.124	48.36
264.341	46.7
264.558	41.58
264.775	21.53
264.992	26.35
265.209	26.03
265.426	30.21
265.643	23.74
265.86	15.27
266.077	22.87
266.294	24.84
266.51	20.91
266.727	29.59
266.944	44.71
267.161	43.85
267.378	44.19
267.595	54.37
267.812	44.6
268.028	52.44
268.245	31.89
268.462	15.82
268.679	6.55
268.896	10.25
269.112	-11.92
269.329	8.13
269.546	37.08
269.763	28.63
269.979	29.52
270.196	46.89
270.413	44.16
270.629	22.2
270.846	40.86
271.063	40
271.279	34.34
271.496	15.25
271.712	-2.56
271.929	-24.71
272.146	-64.12
272.362	-36.31
272.579	-20.57
272.795	16.35
273.012	14.66
273.228	23.22
273.445	23.49
273.661	30.64
273.878	10.58
274.094	9.43
274.311	22.57
274.527	19.06
274.744	13.04
274.96	18.93
275.177	24.22
275.393	29.92
275.609	31.16
275.826	28.7
276.042	18.05
276.259	27.36
276.475	10.94
276.691	17.46
276.908	17.52
277.124	19.22
277.34	14.21
277.557	14.57
277.773	23.2
277.989	28.5
278.205	31.73
278.422	28.87
278.638	34.29
278.854	31.97
279.07	38.19
279.286	40.78
279.503	47.51
279.719	45.74
279.935	46.32
280.151	43.27
280.367	45.12
280.583	45.5
280.799	54.16
281.016	50.3
281.232	39.75
281.448	31.5
281.664	25.44
281.88	0.92
282.096	6.29
282.312	23.28
282.528	16.8
282.744	27.31
282.96	31.92
283.176	18.3
283.392	14.16
283.608	32.23
283.824	26.02
284.04	11.35
284.256	30.3
284.471	27.39
284.687	30.83
284.903	31.46
285.119	43.69
285.335	44.64
285.551	39.02
285.767	35.75
285.982	21.51
286.198	14.94
286.414	6.04
286.63	10.83
286.846	9.27
287.061	9.5
287.277	3.12
287.493	-4.08
287.709	-6.1
287.924	3.27
288.14	29.71
288.356	56.27
288.571	63.56
288.787	68.17
289.003	59.76
289.218	56.12
289.434	38.07
289.65	30.39
289.865	9.25
290.081	18.54
290.296	6.49
290.512	4.43
290.727	20.66
290.943	27.5
291.159	25.5
291.374	35.66
291.59	33.01
291.805	30.22
292.021	49.5
292.236	49.18
292.451	35.29
292.667	54.16
292.882	45.16
293.098	26.6
293.313	41.78
293.529	63.89
293.744	46.35
293.959	45
294.175	55.33
294.39	36.87
294.605	28.9
294.821	33.37
295.036	17.23
295.251	7.3
295.467	14.94
295.682	-17.2
295.897	-4.92
296.112	25.28
296.328	31.72
296.543	44.03
296.758	58.5
296.973	54.95
297.188	62.11
297.404	47.78
297.619	42.31
297.834	37.87
298.049	31.12
298.264	24.46
298.479	35.37
298.694	26.86
298.909	25.07
299.125	31.55
299.34	20.8
299.555	18.21
299.77	27.42
299.985	25.69
300.2	27.19
300.415	24.38
300.63	10.41
300.845	8.09
301.06	-1.86
301.275	2.78
301.49	14.23
301.704	24.56
301.919	23.53
302.134	40.39
302.349	34.52
302.564	29.17
302.779	17.17
302.994	4.88
303.209	2.09
303.423	-14.03
303.638	-29.98
303.853	-18.21
304.068	0.89
304.283	-11
304.497	-3.82
304.712	20.41
304.927	24.8
305.142	28.64
305.356	27.11
305.571	43.42
305.786	28.24
306	22.93
306.215	29.12
306.43	38.59
306.644	38.24
306.859	48.82
307.074	52.94
307.288	40.31
307.503	36.92
307.717	23.67
307.932	14.15
308.147	32.67
308.361	33.77
308.576	28.25
308.79	22.62
309.005	14.22
309.219	-18.73
309.434	-30.24
309.648	-23.78
309.863	-21.24
310.077	-9.2
310.292	6.3
310.506	-2.27
310.72	2.52
310.935	9.06
311.149	-5.07
311.364	-37.2
311.578	-6.48
311.792	-18.07
312.007	-2.24
312.221	9.68
312.435	18.45
312.649	18.39
312.864	-19.6
313.078	-43.35
313.292	-43.39
313.507	-23.42
313.721	11.17
313.935	48.29
314.149	44.02
314.363	34.37
314.578	29.76
314.792	8.55
315.006	15.99
315.22	19.61
315.434	24.7
315.648	25.94
315.862	30.14
316.077	17.13
316.291	13.01
316.505	1.41
316.719	5.31
316.933	19.34
317.147	28.51
317.361	28.44
317.575	36.81
317.789	40.46
318.003	30.29
318.217	31.24
318.431	25.43
318.645	32.22
318.859	23.56
319.073	9.98
319.287	2.95
319.5	9.77
319.714	-7.98
319.928	-1.84
320.142	-2.72
320.356	7.45
320.57	11.7
320.784	25.46
320.997	31.73
321.211	45.7
321.425	40.93
321.639	30.13
321.853	22.58
322.066	21.3
322.28	2.31
322.494	3.45
322.707	14.09
322.921	24.53
323.135	7.15
323.349	17.7
323.562	13.7
323.776	-2.74
323.989	-29.67
324.203	-15.53
324.417	-21.68
324.63	5.43
324.844	14.01
325.057	19.82
325.271	8.04
325.485	6.06
325.698	-8.33
325.912	-10.02
326.125	10.72
326.339	29.9
326.552	35.76
326.766	42.93
326.979	46.12
327.193	36.66
327.406	31.72
327.619	27.41
327.833	27.59
328.046	35.15
328.26	44.09
328.473	34.18
328.686	32.49
328.9	37.81
329.113	21.97
329.326	-17.05
329.54	-12.89
329.753	-26.49
329.966	-49.75
330.179	-16.56
330.393	37.22
330.606	23.09
330.819	41.42
331.032	56.31
331.246	40.61
331.459	24.45
331.672	32.71
331.885	23.48
332.098	25.07
332.311	25.11
332.525	16.71
332.738	12.52
332.951	26.08
333.164	13.45
333.377	9.83
333.59	30.09
333.803	34.54
334.016	24.21
334.229	25.77
334.442	36.15
334.655	31.29
334.868	34
335.081	34.9
335.294	39.08
335.507	16.22
335.72	14.31
335.933	11.38
336.146	11.51
336.359	13.72
336.572	37.18
336.785	39.47
336.997	44.34
337.21	55.05
337.423	54.24
337.636	41.83
337.849	32.97
338.062	29.14
338.274	24.11
338.487	28.53
338.7	14.14
338.913	7.71
339.125	9.53
339.338	-12.08
339.551	-34.9
339.763	-21
339.976	-8.18
340.189	-9.25
340.402	3.67
340.614	7.47
340.827	6.88
341.039	2.18
341.252	12.44
341.465	-5.68
341.677	6.26
341.89	12.14
342.102	22.45
342.315	14.38
342.527	16.07
342.74	27.58
342.952	9.33
343.165	16.49
343.377	13.97
343.59	16.62
343.802	-0.98
344.015	15.33
344.227	3.57
344.44	-16.61
344.652	2.5
344.864	17.74
345.077	14.6
345.289	2.22
345.502	16.27
345.714	11.65
345.926	-6.83
346.139	-4.43
346.351	9.73
346.563	-6.78
346.775	-3.35
346.988	6.6
347.2	-6.18
347.412	-10.86
347.624	3.26
347.837	-23.36
348.049	-12.28
348.261	-0.4
348.473	-7.58
348.685	16.71
348.897	28.61
349.11	30.39
349.322	19.1
349.534	30.29
349.746	23.98
349.958	28.82
350.17	33.71
350.382	43.31
350.594	25.98
350.806	14.03
351.018	9
351.23	-1.99
351.442	-7.91
351.654	30.88
351.866	31.01
352.078	24.66
352.29	24.22
352.502	22.47
352.714	9.43
352.926	21.82
353.138	30.45
353.35	27.28
353.561	26.93
353.773	24.09
353.985	-8.19
354.197	-11.45
354.409	-1.18
354.621	-1.44
354.832	1.91
355.044	12.43
355.256	16.7
355.468	16.52
355.679	32.5
355.891	31.93
356.103	40.61
356.314	49.38
356.526	54.3
356.738	43.07
356.949	45.97
357.161	47.53
357.373	42.97
357.584	28.68
357.796	36.23
358.008	36.51
358.219	24.49
358.431	32.54
358.642	28.72
358.854	21.76
359.065	10.23
359.277	19.82
359.488	24.81
359.7	30.7
359.911	39.76
360.123	44.31
360.334	36.56
360.546	6.06
360.757	22.1
360.969	3.92
361.18	10.95
361.391	12.24
361.603	25.15
361.814	14.99
362.025	30.5
362.237	34.99
362.448	33.92
362.659	38.43
362.871	42.21
363.082	35.75
363.293	29.94
363.504	26.99
363.716	13.36
363.927	-7.76
364.138	-10.43
364.349	-9.27
364.56	-6.74
364.772	2.05
364.983	17.41
365.194	16.44
365.405	23.81
365.616	14.99
365.827	15.58
366.038	14.39
366.25	13.3
366.461	7.24
366.672	7.72
366.883	15.43
367.094	9.63
367.305	11.4
367.516	12
367.727	22.78
367.938	14.01
368.149	4.38
368.36	5.95
368.571	5.59
368.781	7.62
368.992	0.73
369.203	-1.27
369.414	-0.31
369.625	-0.5
369.836	2.36
370.047	16.48
370.258	22.04
370.468	16.68
370.679	13.35
370.89	12.43
371.101	-6.21
371.312	-3.81
371.522	-10.22
371.733	4.98
371.944	2.09
372.155	13.99
372.365	2.05
372.576	19.99
372.787	14.12
372.997	22.4
373.208	24.27
373.419	38.34
373.629	33.84
373.84	31.01
374.05	31.58
374.261	30.94
374.472	35.68
374.682	23.82
374.893	21.42
375.103	13.44
375.314	13.61
375.524	12.24
375.735	18.73
375.945	24.4
376.156	27.71
376.366	28.65
376.577	10.86
376.787	9.82
376.997	13.43
377.208	7.49
377.418	2.23
377.629	14.95
377.839	30.45
378.049	16.81
378.26	23.38
378.47	28.47
378.68	29.61
378.89	12.53
379.101	16.39
379.311	3.98
379.521	0.52
379.732	-0.41
379.942	15.88
380.152	15.04
380.362	26.07
380.572	20.97
380.783	16.72
380.993	12.24
381.203	14.9
381.413	8.42
381.623	14.26
381.833	11.46
382.043	19.67
382.253	19.53
382.463	19.94
382.674	27.78
382.884	15.5
383.094	7.61
383.304	12.39
383.514	15.91
383.724	8.35
383.934	22.14
384.144	11.28
384.353	6.56
384.563	4.14
384.773	3.72
384.983	-3.47
385.193	4.57
385.403	1.83
385.613	10.14
385.823	10.81
386.033	14.44
386.242	17.02
386.452	13.97
386.662	14.16
386.872	16.83
387.082	17.41
387.291	3.89
387.501	5.4
387.711	-0.9
387.921	0.99
388.13	3.87
388.34	7.13
388.55	8.81
388.759	10.89
388.969	9.44
389.179	8.18
389.388	15.96
389.598	17.24
389.807	15.85
390.017	14.18
390.227	16.27
390.436	12.87
390.646	13.96
390.855	13.51
391.065	11.78
391.274	9.76
391.484	6.14
391.693	4.59
391.903	5.67
392.112	7.11
392.322	5.99
392.531	8.78
392.74	8.31
392.95	5.84
393.159	4.83
393.369	4.68
393.578	4.88
393.787	3.96
393.997	6.19
394.206	8.18
394.415	8.57
394.625	7.9
394.834	8.03
395.043	7.26
395.252	6.54
395.462	7.18
395.671	6.16
395.88	7.09
396.089	7.5
396.298	6.62
396.508	5.77
396.717	7.27
396.926	6.47
397.135	6.15
397.344	6.4
397.553	7.1
397.762	5.99
397.971	6.35
398.181	6.06
398.39	5.98
398.599	5.76
398.808	6.49
399.017	6.51
399.226	6.86
399.435	7.36
399.644	7.74
399.853	7.86
400.062	8.11
400.27	7.74
400.479	7.18
400.688	6.8
400.897	6.49
401.106	6.59
401.315	7.04
401.524	7.26
401.733	7.41
401.941	7.49
402.15	7.13
402.359	6.93
402.568	6.99
402.777	6.79
402.985	6.64
403.194	6.88
403.403	6.95
403.612	6.87
403.82	6.72
404.029	6.82
404.238	6.68
404.446	6.68
404.655	6.63
404.864	6.82
405.072	6.72
405.281	6.66
405.489	6.44
405.698	6.5
405.906	6.57
406.115	6.45
406.324	6.24
406.532	6.19
406.741	6.02
406.949	5.89
407.158	5.82
407.366	5.86
407.574	6.05
407.783	6.08
407.991	6.01
408.2	6.13
408.408	6.28
408.617	6.2
408.825	6.25
409.033	6.28
409.242	6.2
409.45	6.07
409.658	6.01
409.867	5.95
410.075	5.87
410.283	5.96
410.491	5.97
410.7	5.91
410.908	5.89
411.116	5.84
411.324	5.71
411.533	5.7
411.741	5.58
411.949	5.5
412.157	5.64
412.365	5.78
412.573	5.68
412.781	5.59
412.99	5.67
413.198	5.75
413.406	5.71
413.614	5.8
413.822	6.06
414.03	6
414.238	5.8
414.446	5.74
414.654	5.75
414.862	5.8
415.07	5.78
415.278	5.84
415.486	5.74
415.694	5.67
415.902	5.48
416.109	5.42
416.317	5.41
416.525	5.37
416.733	5.38
416.941	5.61
417.149	5.53
417.357	5.55
417.564	5.44
417.772	5.35
417.98	5.19
418.188	5.36
418.395	5.25
418.603	5.37
418.811	5.45
419.019	5.49
419.226	5.51
419.434	5.57
419.642	5.62
419.849	5.52
420.057	5.28
420.265	5.35
420.472	5.22
420.68	5.2
420.887	5.32
421.095	5.43
421.302	5.32
421.51	5.2
421.717	5.18
421.925	5.05
422.132	5.05
422.34	4.96
422.547	5.11
422.755	5.3
422.962	5.33
423.17	5.42
423.377	5.5
423.585	5.53
423.792	5.34
423.999	5.28
424.207	5.11
424.414	4.97
424.621	5.01
424.829	4.88
425.036	4.85
425.243	4.85
425.451	4.85
425.658	4.6
425.865	4.73
426.072	4.64
426.28	4.71
426.487	4.91
426.694	5.05
426.901	5.03
427.108	5.1
427.315	5.02
427.523	4.72
427.73	4.63
427.937	4.55
428.144	4.54
428.351	4.48
428.558	4.71
428.765	4.73
428.972	4.87
429.179	4.95
429.386	4.97
429.593	4.94
429.8	5
430.007	4.76
430.214	4.77
430.421	4.85
430.628	4.79
430.835	4.88
431.042	4.92
431.249	4.84
431.456	4.84
431.662	5.01
431.869	5.12
432.076	5.21
432.283	5.17
432.49	5.19
432.697	5.02
432.903	4.86
433.11	5.06
433.317	5.11
433.524	5
433.73	5.01
433.937	4.99
434.144	4.95
434.35	4.97
434.557	5.08
434.764	5.1
434.97	5.12
435.177	5.07
435.384	4.94
435.59	5.02
435.797	4.99
436.003	5.04
436.21	4.84
436.416	4.83
436.623	4.57
436.829	4.4
437.036	4.34
437.242	4.48
437.449	4.49
437.655	4.65
437.862	4.88
438.068	4.84
438.275	4.9
438.481	4.87
438.687	4.94
438.894	4.97
439.1	5.04
439.307	4.89
439.513	5.07
439.719	5.09
439.926	4.98
440.132	5.11
440.338	5.17
440.544	5.03
440.751	4.85
440.957	4.85
441.163	4.62
441.369	4.6
441.575	4.64
441.782	4.84
441.988	4.85
442.194	4.94
442.4	5
442.606	5.03
442.812	4.96
443.018	4.88
443.224	4.8
443.431	4.76
443.637	4.8
443.843	4.62
444.049	4.73
444.255	4.73
444.461	4.69
444.667	4.49
444.873	4.55
445.079	4.58
445.284	4.57
445.49	4.61
445.696	4.73
445.902	4.71
446.108	4.6
446.314	4.63
446.52	4.65
446.726	4.67
446.931	4.77
447.137	4.79
447.343	4.65
447.549	4.58
447.755	4.51
447.96	4.5
448.166	4.56
448.372	4.7
448.578	4.73
448.783	4.83
448.989	4.81
449.195	4.71
449.4	4.76
449.606	4.72
449.812	4.6
450.017	4.6
450.223	4.57
450.428	4.43
450.634	4.44
450.84	4.49
451.045	4.48
451.251	4.6
451.456	4.7
451.662	4.63
451.867	4.67
452.073	4.57
452.278	4.49
452.483	4.44
452.689	4.54
452.894	4.48
453.1	4.51
453.305	4.55
453.51	4.56
453.716	4.49
453.921	4.55
454.127	4.56
454.332	4.55
454.537	4.56
454.742	4.47
454.948	4.29
455.153	4.39
455.358	4.4
455.563	4.38
455.769	4.48
455.974	4.58
456.179	4.48
456.384	4.34
456.589	4.36
456.795	4.29
457	4.28
457.205	4.19
457.41	4.29
457.615	4.14
457.82	4.16
458.025	4.1
458.23	4.25
458.435	4.21
458.64	4.27
458.845	4.3
459.05	4.31
459.255	4.34
459.46	4.35
459.665	4.37
459.87	4.36
460.075	4.49
460.28	4.4
460.485	4.45
460.69	4.4
460.895	4.4
461.099	4.34
461.304	4.25
461.509	4.29
461.714	4.39
461.919	4.43
462.123	4.4
462.328	4.4
462.533	4.3
462.738	4.29
462.942	4.21
463.147	4.21
463.352	4.24
463.556	4.43
463.761	4.36
463.966	4.39
464.17	4.44
464.375	4.47
464.58	4.29
464.784	4.34
464.989	4.3
465.193	4.28
465.398	4.33
465.602	4.46
465.807	4.4
466.011	4.47
466.216	4.35
466.42	4.35
466.625	4.24
466.829	4.27
467.034	4.34
467.238	4.48
467.443	4.54
467.647	4.54
467.851	4.49
468.056	4.44
468.26	4.43
468.464	4.3
468.669	4.29
468.873	4.31
469.077	4.24
469.282	4.16
