Data from Ofav_PP_Phys_9IR44_Reflection_2.txt Node
Date: Tue Jul 27 19:05:45 EDT 2021
User: USUARIO
Spectrometer: FLMT01687
Trigger mode: 0
Integration Time (sec): 8.500000E-1
Scans to average: 2
Electric dark correction enabled: true
Nonlinearity correction enabled: false
Boxcar width: 2
XAxis mode: Wavelengths
Number of Pixels in Spectrum: 3648
>>>>>Begin Spectral Data<<<<<
179.494	-1062.22
179.716	-327.42
179.937	-209.34
180.158	-197.98
180.38	-172.9
180.601	-106.05
180.823	87.85
181.044	63.3
181.265	-16.92
181.486	-102.88
181.708	-31.06
181.929	129.79
182.15	77.48
182.372	19.69
182.593	-19.19
182.814	68.12
183.035	87.28
183.257	77.14
183.478	64.95
183.699	63.89
183.92	51.41
184.141	43.17
184.363	62.23
184.584	77.86
184.805	97.9
185.026	78.61
185.247	100.06
185.468	74.73
185.689	46.72
185.91	3.78
186.132	6.44
186.353	7.72
186.574	-3.91
186.795	-4.99
187.016	18.62
187.237	16.08
187.458	15.31
187.679	30.69
187.9	35.84
188.121	48.54
188.342	90.22
188.563	93.38
188.784	96.6
189.005	121.64
189.226	109.82
189.447	81.84
189.667	76.29
189.888	84.93
190.109	45.42
190.33	51.94
190.551	48.73
190.772	46.45
190.993	27.71
191.214	43.29
191.434	32.68
191.655	35.77
191.876	29.32
192.097	34.65
192.318	32.36
192.538	19.97
192.759	28.04
192.98	32.92
193.201	44.51
193.421	61.48
193.642	47.95
193.863	38.2
194.083	52.18
194.304	31.08
194.525	1.22
194.745	-9.61
194.966	-29.53
195.187	-54.66
195.407	-39.67
195.628	-13.33
195.848	40.86
196.069	43.67
196.29	84.22
196.51	97.36
196.731	79.05
196.951	59.15
197.172	60.84
197.392	40.88
197.613	49.67
197.833	41.74
198.054	62.63
198.274	67.04
198.495	79.73
198.715	85.33
198.936	88.48
199.156	77.26
199.377	72.03
199.597	67.69
199.817	53.37
200.038	55.32
200.258	22.88
200.479	53.48
200.699	43.28
200.919	40.32
201.14	40.07
201.36	23.32
201.58	30.76
201.801	40.35
202.021	41.29
202.241	71.04
202.461	90.88
202.682	68.01
202.902	62.53
203.122	71.12
203.342	47.15
203.563	52.32
203.783	50.39
204.003	45.85
204.223	18.72
204.443	12.58
204.663	3.28
204.884	-3.47
205.104	-1.13
205.324	51.16
205.544	61.17
205.764	43.79
205.984	64.08
206.204	120.41
206.424	88.91
206.644	53.78
206.864	50.68
207.084	39.76
207.304	26.3
207.525	23.51
207.745	26.08
207.964	50.07
208.184	40.71
208.404	35.41
208.624	40.11
208.844	44.21
209.064	34.2
209.284	35.1
209.504	28.43
209.724	16.75
209.944	-6.14
210.164	-41.52
210.384	-40.29
210.604	-25.94
210.823	23.2
211.043	22.09
211.263	16.59
211.483	42.37
211.703	51.9
211.922	35.23
212.142	53.48
212.362	50.6
212.582	0.15
212.801	15.76
213.021	22.19
213.241	-2.23
213.461	-33.25
213.68	8.44
213.9	3.04
214.12	15.41
214.339	49.97
214.559	66.48
214.779	69.7
214.998	33.42
215.218	25.43
215.438	38.17
215.657	26.64
215.877	21.5
216.096	45.39
216.316	62.63
216.535	43.24
216.755	65.07
216.974	71.78
217.194	70.66
217.413	51.25
217.633	48.51
217.852	35.21
218.072	16.91
218.291	0.87
218.511	17.46
218.73	25.11
218.95	39.08
219.169	63.17
219.389	66.05
219.608	77.53
219.827	75.59
220.047	58.62
220.266	48.35
220.485	51.69
220.705	33.61
220.924	14.64
221.143	4.08
221.363	-22.91
221.582	-26.06
221.801	-30.46
222.021	3.59
222.24	17.71
222.459	6.51
222.678	7.76
222.897	47.52
223.117	40.64
223.336	33.79
223.555	34.21
223.774	38.98
223.993	15.82
224.213	27.51
224.432	37.71
224.651	50.75
224.87	38.54
225.089	32.71
225.308	23.12
225.527	37.21
225.746	17.78
225.965	24.6
226.184	30.43
226.404	38.45
226.623	17.14
226.842	27.94
227.061	19.17
227.28	37.25
227.499	56.34
227.718	40.07
227.936	46.65
228.155	49.17
228.374	41.12
228.593	19.18
228.812	32.85
229.031	10.83
229.25	1.9
229.469	-37.78
229.688	-44.94
229.907	-62.45
230.125	-7.53
230.344	-6.37
230.563	30.6
230.782	33.4
231.001	42.66
231.22	36.46
231.438	37.79
231.657	17.94
231.876	21.78
232.095	12.82
232.313	29.84
232.532	37.87
232.751	47.06
232.969	56.83
233.188	67.59
233.407	50.82
233.625	39.96
233.844	38.91
234.063	36.85
234.281	36.37
234.5	26.46
234.719	55.36
234.937	43.48
235.156	28.55
235.374	31.8
235.593	41.09
235.811	20.22
236.03	17.69
236.249	21.11
236.467	21.2
236.686	27.01
236.904	30.88
237.123	32.04
237.341	29.52
237.559	19.17
237.778	24.95
237.996	17.91
238.215	35.85
238.433	53.84
238.652	50.2
238.87	42.41
239.088	25.17
239.307	15.6
239.525	-22.38
239.743	-7.18
239.962	1.13
240.18	25.15
240.398	25.2
240.617	32.37
240.835	45.99
241.053	35.41
241.271	42.29
241.49	45.16
241.708	63.08
241.926	36.5
242.144	33.27
242.363	19.96
242.581	23.09
242.799	21.49
243.017	-3.92
243.235	16.05
243.453	35.33
243.672	24.03
243.89	18.02
244.108	53.01
244.326	53.27
244.544	21.07
244.762	29.87
244.98	31.66
245.198	23.1
245.416	14.87
245.634	43.63
245.852	48.36
246.07	46.1
246.288	49.15
246.506	43.9
246.724	41.78
246.942	36.72
247.16	27.69
247.378	18.69
247.596	22.56
247.814	22.03
248.032	14.32
248.25	20.01
248.468	25.76
248.685	29.94
248.903	32.76
249.121	41.73
249.339	49.65
249.557	58.9
249.775	38.49
249.992	27.67
250.21	16.5
250.428	16.49
250.646	-11.1
250.863	6.16
251.081	12.84
251.299	16.22
251.517	7.73
251.734	19.15
251.952	-11.24
252.17	-3.94
252.387	-18.78
252.605	5.12
252.823	18.26
253.04	45.97
253.258	49.62
253.475	57.05
253.693	68.95
253.911	81.38
254.128	73.74
254.346	74.36
254.563	83.73
254.781	50.8
254.998	52.67
255.216	31.42
255.433	30.23
255.651	33.54
255.868	46.31
256.086	28.17
256.303	32.97
256.521	38.64
256.738	19.14
256.956	18.83
257.173	27.67
257.39	27.27
257.608	25.16
257.825	32.91
258.043	41.24
258.26	38.56
258.477	37.6
258.695	35.55
258.912	49.46
259.129	38.13
259.346	46.79
259.564	65.6
259.781	75.95
259.998	58.85
260.216	58.46
260.433	46.31
260.65	41.15
260.867	35.8
261.084	30.21
261.302	25.51
261.519	31.62
261.736	20.31
261.953	13.72
262.17	11.89
262.387	13.08
262.604	15.36
262.822	34
263.039	38.66
263.256	41.7
263.473	65.65
263.69	57.74
263.907	35.62
264.124	43.33
264.341	54.8
264.558	44.83
264.775	45.26
264.992	54.15
265.209	43.8
265.426	49.66
265.643	37.98
265.86	42.75
266.077	47.65
266.294	56.47
266.51	47.35
266.727	41.4
266.944	41.37
267.161	27.72
267.378	11.45
267.595	28.37
267.812	36.86
268.028	58.8
268.245	57.55
268.462	64.63
268.679	20.81
268.896	27.04
269.112	3.65
269.329	6.06
269.546	19.28
269.763	29.2
269.979	32.73
270.196	44.1
270.413	50.55
270.629	57.49
270.846	68.25
271.063	51.55
271.279	52.18
271.496	47.76
271.712	8.24
271.929	-1.9
272.146	-15.75
272.362	1.15
272.579	9.14
272.795	35.47
273.012	25.71
273.228	30.11
273.445	31.68
273.661	34.69
273.878	21.88
274.094	12.63
274.311	27.53
274.527	23.42
274.744	19.86
274.96	19.97
275.177	17.99
275.393	27.58
275.609	29.15
275.826	18.68
276.042	28.44
276.259	51.98
276.475	36.16
276.691	41.82
276.908	43.88
277.124	37.77
277.34	35.55
277.557	25.19
277.773	27.88
277.989	28.97
278.205	37.96
278.422	41.25
278.638	51.8
278.854	58.31
279.07	60.58
279.286	51.75
279.503	48.76
279.719	44.04
279.935	37.85
280.151	39.31
280.367	43.85
280.583	43.52
280.799	55.29
281.016	57.86
281.232	56.3
281.448	60.51
281.664	59.27
281.88	45.74
282.096	43.48
282.312	40.67
282.528	28.52
282.744	14.17
282.96	16.43
283.176	20.99
283.392	31.37
283.608	56.03
283.824	59.31
284.04	47.31
284.256	41.6
284.471	35.67
284.687	29.77
284.903	29.18
285.119	50.68
285.335	36.67
285.551	32.31
285.767	36.52
285.982	35.35
286.198	15.71
286.414	21.02
286.63	24.81
286.846	16.92
287.061	10.84
287.277	5.63
287.493	7.71
287.709	21.52
287.924	19.67
288.14	36.2
288.356	67.19
288.571	78.39
288.787	59.3
289.003	59.96
289.218	67.96
289.434	54.25
289.65	43.16
289.865	34.27
290.081	40.36
290.296	27.79
290.512	13.04
290.727	9.42
290.943	9.11
291.159	2.12
291.374	7.47
291.59	29.5
291.805	44.1
292.021	49.98
292.236	54.17
292.451	41.07
292.667	42.93
292.882	33.39
293.098	36.1
293.313	41.94
293.529	63.21
293.744	61.62
293.959	70.51
294.175	69.65
294.39	59.84
294.605	43.12
294.821	37.92
295.036	33.95
295.251	30.73
295.467	16.29
295.682	4.73
295.897	5.92
296.112	17.71
296.328	26.38
296.543	38.65
296.758	43.02
296.973	41.35
297.188	36.38
297.404	23.93
297.619	25.84
297.834	27.12
298.049	30.04
298.264	33.72
298.479	30.59
298.694	38.71
298.909	42.23
299.125	42.83
299.34	31.14
299.555	50.9
299.77	43.52
299.985	43.51
300.2	46.2
300.415	58.14
300.63	35.01
300.845	39.46
301.06	32.99
301.275	43.56
301.49	27.79
301.704	34.47
301.919	36.22
302.134	44.92
302.349	38.54
302.564	36.33
302.779	30.36
302.994	25.35
303.209	22.27
303.423	17.56
303.638	16.49
303.853	22.37
304.068	27.05
304.283	24.6
304.497	23.99
304.712	33.63
304.927	24.04
305.142	29.85
305.356	14.14
305.571	24.4
305.786	14.95
306	41.03
306.215	25.61
306.43	34.92
306.644	41.61
306.859	52.39
307.074	29.83
307.288	27.33
307.503	34.12
307.717	21.15
307.932	11.78
308.147	29.61
308.361	38.11
308.576	42.3
308.79	50.97
309.005	49.41
309.219	38.79
309.434	32.81
309.648	13.67
309.863	-6.6
310.077	-8.32
310.292	10.02
310.506	6.57
310.72	21.21
310.935	26.91
311.149	43.94
311.364	12.67
311.578	20.39
311.792	25.76
312.007	44.94
312.221	46.68
312.435	46.72
312.649	38.09
312.864	-3.47
313.078	-38.08
313.292	-38.44
313.507	-15.62
313.721	13.83
313.935	38.29
314.149	33.38
314.363	25.28
314.578	21.67
314.792	23.9
315.006	26.24
315.22	36.44
315.434	39.57
315.648	41.11
315.862	32.27
316.077	46.04
316.291	61.82
316.505	51.13
316.719	54.31
316.933	47.57
317.147	15.6
317.361	10.24
317.575	11.71
317.789	13.43
318.003	13
318.217	43.92
318.431	39.52
318.645	34.51
318.859	36.69
319.073	27.6
319.287	29.37
319.5	24.72
319.714	19.51
319.928	18.08
320.142	17.34
320.356	20.63
320.57	35.03
320.784	34.52
320.997	41.65
321.211	48.46
321.425	37.94
321.639	19.07
321.853	22.19
322.066	22.69
322.28	2.74
322.494	9.28
322.707	30.38
322.921	32.15
323.135	21.75
323.349	33.23
323.562	37.85
323.776	18.52
323.989	12.23
324.203	19.64
324.417	13.87
324.63	25.64
324.844	30.41
325.057	25.53
325.271	19.24
325.485	24.43
325.698	15.37
325.912	8.08
326.125	25.58
326.339	33.42
326.552	42.11
326.766	42.52
326.979	55.1
327.193	41.83
327.406	27.07
327.619	21.84
327.833	31.77
328.046	36.29
328.26	42.73
328.473	35.71
328.686	36.05
328.9	21
329.113	8.47
329.326	-9.5
329.54	27.93
329.753	19.27
329.966	34.06
330.179	37.62
330.393	57.04
330.606	42.4
330.819	50.93
331.032	46.13
331.246	55.88
331.459	45.57
331.672	52.1
331.885	56.24
332.098	55.89
332.311	43.99
332.525	47.32
332.738	37.37
332.951	32.71
333.164	24.17
333.377	18.53
333.59	19.79
333.803	34.86
334.016	35.14
334.229	47.06
334.442	57.94
334.655	53.35
334.868	52.08
335.081	46.5
335.294	52.57
335.507	27.46
335.72	32.77
335.933	19.78
336.146	26.74
336.359	10.29
336.572	32.29
336.785	28.14
336.997	44.18
337.21	51.15
337.423	49.69
337.636	31.96
337.849	17.24
338.062	12.18
338.274	7.74
338.487	22.86
338.7	22.99
338.913	31.7
339.125	17.35
339.338	16.1
339.551	-9.74
339.763	-6.66
339.976	5.64
340.189	26.88
340.402	14.87
340.614	8.63
340.827	17.52
341.039	-6.94
341.252	-19.45
341.465	-32.92
341.677	-16.92
341.89	-24.93
342.102	11.95
342.315	14.09
342.527	23.97
342.74	35.65
342.952	36.66
343.165	31.95
343.377	30.39
343.59	34.46
343.802	29.25
344.015	24.11
344.227	10.63
344.44	-2.48
344.652	-9.8
344.864	-43.94
345.077	-10.91
345.289	2.09
345.502	8.59
345.714	17
345.926	35.49
346.139	23.73
346.351	22.42
346.563	24.5
346.775	15.28
346.988	14.5
347.2	12.72
347.412	22.55
347.624	21.36
347.837	22.55
348.049	26.22
348.261	26.54
348.473	25.17
348.685	39
348.897	39.47
349.11	38.88
349.322	29.71
349.534	31.73
349.746	23.7
349.958	31.1
350.17	52.7
350.382	54.59
350.594	46.39
350.806	53.31
351.018	52.22
351.23	40.61
351.442	48.49
351.654	75.66
351.866	69.85
352.078	68.89
352.29	58.09
352.502	61.96
352.714	47.9
352.926	43.47
353.138	37.7
353.35	34.89
353.561	33.56
353.773	23.61
353.985	12.62
354.197	15.31
354.409	16.38
354.621	11.67
354.832	26.06
355.044	24.25
355.256	24.43
355.468	29.48
355.679	29.68
355.891	21.61
356.103	31.91
356.314	39.56
356.526	42.02
356.738	50.44
356.949	46.13
357.161	37.8
357.373	40.3
357.584	31.12
357.796	37.87
358.008	48.9
358.219	59.92
358.431	53.77
358.642	51.81
358.854	50.75
359.065	41.43
359.277	37.74
359.488	42.35
359.7	46.11
359.911	44.33
360.123	56.51
360.334	56.83
360.546	45.9
360.757	44.47
360.969	34.69
361.18	26.55
361.391	16.52
361.603	19.89
361.814	17.88
362.025	31.55
362.237	29.61
362.448	25.25
362.659	21.19
362.871	30.55
363.082	21.36
363.293	28.79
363.504	36.1
363.716	42.31
363.927	16.22
364.138	22.49
364.349	10.87
364.56	15.78
364.772	15.78
364.983	46.64
365.194	45.96
365.405	48.15
365.616	43.06
365.827	52.36
366.038	54.13
366.25	51.18
366.461	62.31
366.672	50.91
366.883	38.37
367.094	27.67
367.305	18.36
367.516	-1.29
367.727	19.98
367.938	1.48
368.149	-6.66
368.36	-4.33
368.571	4.76
368.781	7.38
368.992	10.95
369.203	1.9
369.414	4.06
369.625	4.4
369.836	2.65
370.047	10.8
370.258	11.26
370.468	5.8
370.679	15.73
370.89	16.62
371.101	2.69
371.312	18.49
371.522	11.72
371.733	13.07
371.944	10.63
372.155	20.73
372.365	7.9
372.576	21.42
372.787	18.72
372.997	19.19
373.208	20.03
373.419	25.53
373.629	29.38
373.84	26.38
374.05	29.42
374.261	24.02
374.472	34.18
374.682	30.15
374.893	33.83
375.103	24.79
375.314	35.43
375.524	35.38
375.735	36.37
375.945	40.62
376.156	44.69
376.366	43.04
376.577	28.29
376.787	25.21
376.997	16.5
377.208	22.63
377.418	20.15
377.629	30.2
377.839	35.19
378.049	39.52
378.26	31.58
378.47	36.5
378.68	34.48
378.89	30.86
379.101	23.93
379.311	19.05
379.521	15.06
379.732	15.86
379.942	22.06
380.152	19.27
380.362	29.31
380.572	26.87
380.783	17.47
380.993	15.12
381.203	15.4
381.413	7.84
381.623	9.59
381.833	11.48
382.043	18.24
382.253	20.31
382.463	20.55
382.674	29.09
382.884	24.86
383.094	11.98
383.304	16.86
383.514	18.83
383.724	10.02
383.934	10.55
384.144	4.49
384.353	4.07
384.563	6.39
384.773	5.68
384.983	4.97
385.193	11.99
385.403	8.18
385.613	7.75
385.823	9.36
386.033	9.68
386.242	15.66
386.452	14.62
386.662	17.3
386.872	17.94
387.082	14.54
387.291	4.61
387.501	6.75
387.711	-0.37
387.921	-1.46
388.13	3.05
388.34	6.27
388.55	7.36
388.759	6.52
388.969	7.17
389.179	9.25
389.388	9.48
389.598	10.4
389.807	10.46
390.017	10.57
390.227	9.53
390.436	10.31
390.646	7.98
390.855	8.14
391.065	6.17
391.274	5.58
391.484	4.16
391.693	4.45
391.903	5.19
392.112	7.07
392.322	6.38
392.531	6.32
392.74	6.46
392.95	6.25
393.159	5.61
393.369	6.04
393.578	6.46
393.787	5.01
393.997	5.51
394.206	6.04
394.415	6.06
394.625	6.11
394.834	6.1
395.043	6.2
395.252	5.05
395.462	5.25
395.671	4.68
395.88	5.86
396.089	5.86
396.298	6.12
396.508	5.86
396.717	6.45
396.926	6.02
397.135	5.33
397.344	5.35
397.553	5.39
397.762	4.4
397.971	3.74
398.181	3.89
398.39	3.84
398.599	4.04
398.808	4.75
399.017	5.56
399.226	5.69
399.435	5.82
399.644	5.78
399.853	5.7
400.062	5.69
400.27	5.26
400.479	4.87
400.688	4.7
400.897	4.51
401.106	4.64
401.315	5.05
401.524	5.34
401.733	5.14
401.941	5.31
402.15	4.85
402.359	4.52
402.568	4.49
402.777	4.43
402.985	4.26
403.194	4.47
403.403	4.68
403.612	4.51
403.82	4.6
404.029	4.66
404.238	4.72
404.446	4.72
404.655	4.77
404.864	4.79
405.072	4.73
405.281	4.49
405.489	4.25
405.698	4.39
405.906	4.38
406.115	4.39
406.324	4.5
406.532	4.51
406.741	4.4
406.949	4.42
407.158	4.34
407.366	4.29
407.574	4.44
407.783	4.44
407.991	4.32
408.2	4.34
408.408	4.42
408.617	4.22
408.825	4.12
409.033	4.17
409.242	4.15
409.45	4.08
409.658	4.22
409.867	4.17
410.075	4.09
410.283	4.15
410.491	4.04
410.7	3.94
410.908	3.91
411.116	3.93
411.324	3.86
411.533	3.95
411.741	3.96
411.949	3.97
412.157	4
412.365	4.07
412.573	4.05
412.781	3.97
412.99	4.06
413.198	4.16
413.406	4.07
413.614	4.11
413.822	4.17
414.03	4.1
414.238	3.91
414.446	3.95
414.654	3.86
414.862	3.91
415.07	3.85
415.278	3.94
415.486	3.86
415.694	3.79
415.902	3.8
416.109	3.86
416.317	3.89
416.525	3.88
416.733	3.93
416.941	4.02
417.149	3.98
417.357	3.91
417.564	3.74
417.772	3.81
417.98	3.65
418.188	3.72
418.395	3.68
418.603	3.9
418.811	3.95
419.019	3.91
419.226	3.89
419.434	3.97
419.642	4.01
419.849	3.87
420.057	3.89
420.265	3.98
420.472	3.94
420.68	3.7
420.887	3.86
421.095	3.79
421.302	3.58
421.51	3.44
421.717	3.58
421.925	3.35
422.132	3.39
422.34	3.46
422.547	3.53
422.755	3.55
422.962	3.61
423.17	3.66
423.377	3.66
423.585	3.77
423.792	3.84
423.999	3.81
424.207	3.68
424.414	3.63
424.621	3.53
424.829	3.2
425.036	3.07
425.243	3.15
425.451	3.12
425.658	3.04
425.865	3.29
426.072	3.23
426.28	3.23
426.487	3.21
426.694	3.24
426.901	3.23
427.108	3.24
427.315	3.2
427.523	3.27
427.73	3.19
427.937	3.02
428.144	3.15
428.351	3.16
428.558	3.25
428.765	3.33
428.972	3.45
429.179	3.54
429.386	3.57
429.593	3.44
429.8	3.38
430.007	3.28
430.214	3.17
430.421	3.23
430.628	3.21
430.835	3.25
431.042	3.39
431.249	3.36
431.456	3.32
431.662	3.45
431.869	3.58
432.076	3.45
432.283	3.51
432.49	3.5
432.697	3.44
432.903	3.39
433.11	3.65
433.317	3.57
433.524	3.51
433.73	3.36
433.937	3.27
434.144	3.17
434.35	3.28
434.557	3.34
434.764	3.48
434.97	3.5
435.177	3.5
435.384	3.34
435.59	3.35
435.797	3.38
436.003	3.51
436.21	3.27
436.416	3.34
436.623	3.3
436.829	3.23
437.036	3.18
437.242	3.31
437.449	3.16
437.655	3.28
437.862	3.33
438.068	3.24
438.275	3.3
438.481	3.42
438.687	3.29
438.894	3.33
439.1	3.35
439.307	3.28
439.513	3.34
439.719	3.48
439.926	3.39
440.132	3.53
440.338	3.53
440.544	3.52
440.751	3.4
440.957	3.37
441.163	3.14
441.369	3.22
441.575	3.12
441.782	3.3
441.988	3.33
442.194	3.44
442.4	3.5
442.606	3.52
442.812	3.47
443.018	3.42
443.224	3.26
443.431	3.11
443.637	3.23
443.843	3.13
444.049	3.24
444.255	3.32
444.461	3.36
444.667	3.25
444.873	3.11
445.079	3.1
445.284	3.18
445.49	3.09
445.696	3.05
445.902	3.2
446.108	3.17
446.314	3.16
446.52	3.2
446.726	3.28
446.931	3.29
447.137	3.31
447.343	3.19
447.549	3.16
447.755	3.11
447.96	3.03
448.166	3.03
448.372	3.14
448.578	3.21
448.783	3.19
448.989	3.3
449.195	3.21
449.4	3.22
449.606	3.29
449.812	3.34
450.017	3.3
450.223	3.3
450.428	3.22
450.634	3.06
450.84	3.08
451.045	3.07
451.251	3.13
451.456	3.17
451.662	3.21
451.867	3.24
452.073	3.16
452.278	3.11
452.483	3.16
452.689	3.23
452.894	3.18
453.1	3.23
453.305	3.27
453.51	3.32
453.716	3.22
453.921	3.21
454.127	3.28
454.332	3.24
454.537	3.21
454.742	3.23
454.948	3.15
455.153	3.18
455.358	3.24
455.563	3.21
455.769	3.21
455.974	3.29
456.179	3.23
456.384	3.07
456.589	3.15
456.795	3.11
457	3.05
457.205	3
457.41	3.1
457.615	2.93
457.82	2.94
458.025	2.89
458.23	2.96
458.435	2.85
458.64	2.84
458.845	2.8
459.05	2.78
459.255	2.8
459.46	2.94
459.665	3.12
459.87	3.21
460.075	3.33
460.28	3.26
460.485	3.25
460.69	3.07
460.895	3.09
461.099	3.1
461.304	3.07
461.509	3.08
461.714	3.15
461.919	3.15
462.123	3.09
462.328	3.11
462.533	3.11
462.738	3.17
462.942	3.14
463.147	3.22
463.352	3.22
463.556	3.33
463.761	3.24
463.966	3.18
464.17	3.19
464.375	3.18
464.58	3.03
464.784	3.09
464.989	3.17
465.193	3.13
465.398	3.23
465.602	3.32
465.807	3.24
466.011	3.19
466.216	3.14
466.42	3.14
466.625	3.05
466.829	3.01
467.034	3.11
467.238	3.15
467.443	3.19
467.647	3.18
467.851	3.25
468.056	3.14
468.26	3.13
